Version	2	Start	1459535196.169
Time	Valor
V	80	Current (A)
0.331	26
0.390	20
0.422	20
0.457	24
0.510	26
0.548	19
0.599	20
0.689	20
0.722	18
0.781	21
0.839	19
0.899	16
0.989	24
1.052	24
1.083	21
1.145	16
1.230	31
1.350	38
1.381	39
1.500	42
1.589	42
1.594	44
1.625	44
1.709	36
1.771	36
1.831	32
1.979	26
2.249	9
2.374	18
2.490	23
2.674	36
2.733	32
2.792	35
2.858	33
2.909	34
2.999	25
3.062	34
3.180	35
3.238	38
3.300	43
3.452	51
3.481	68
3.540	54
3.629	57
3.663	57
3.695	53
3.752	48
3.844	32
3.903	39
3.930	44
3.962	34
4.169	35
4.201	40
4.265	22
4.500	30
4.619	42
4.679	37
4.773	34
4.921	49
4.952	44
5.014	51
5.069	43
5.104	51
5.160	48
5.249	39
5.373	25
5.430	23
5.520	31
5.610	36
5.670	52
5.703	52
5.789	47
5.794	48
5.882	44
5.970	39
5.999	39
6.034	36
6.062	29
6.150	24
6.241	32
6.301	40
6.330	32
6.515	32
6.690	50
6.809	45
6.901	40
6.989	45
7.079	59
7.142	34
7.263	48
7.349	60
7.411	43
7.470	38
7.531	34
7.559	22
7.619	27
7.709	37
7.743	41
7.830	45
7.889	49
7.949	43
8.039	41
8.103	47
8.132	27
8.250	17
8.309	18
8.402	24
8.462	18
8.580	22
8.639	23
8.766	27
8.792	24
8.939	35
8.973	35
9.002	33
9.030	41
9.066	46
9.151	66
9.213	64
9.273	73
9.361	105
9.419	56
9.509	5
9.569	95
9.660	61
9.660	61
9.689	63
9.842	99
9.930	101
10.020	71
10.050	69
10.054	68
10.111	68
10.230	36
10.290	42
10.382	65
10.441	57
10.529	43
10.598	45
10.652	46
10.769	42
10.777	44
10.802	49
11.011	32
11.099	39
11.160	35
11.193	33
11.399	21
11.549	16
11.582	24
11.613	26
11.730	25
11.910	38
11.943	37
12.060	43
12.119	37
12.180	22
12.239	17
12.273	13
12.332	19
12.389	29
12.399	29
12.422	34
12.480	34
12.663	46
12.721	32
12.870	8
12.959	8
13.019	9
13.081	8
13.233	8
13.261	7
13.351	3
13.384	3
13.470	5
13.530	6
13.653	8
33.510	8
33.663	4
33.929	4
33.989	6
34.079	9
34.140	9
34.202	8
34.260	6
34.321	5
34.349	4
34.950	4
35.166	5
35.642	5
35.671	6
35.820	8
36.750	8
36.811	9
36.841	10
36.872	10
36.928	9
36.989	8
46.178	8
46.217	13
46.374	14
46.586	14
46.594	13
46.603	12
46.621	11
46.684	11
46.713	10
46.781	9
46.805	8
47.947	8
48.016	10
48.087	8
49.174	8
49.239	13
49.253	27
49.269	18
49.277	13
49.363	7
49.472	7
49.530	8
50.180	8
50.319	5
50.533	5
50.540	6
50.792	6
50.854	7
50.881	11
50.979	15
51.086	15
51.267	26
51.386	20
51.402	14
51.425	9
51.477	10
51.532	44
51.543	65
51.626	126
51.642	186
51.700	389
51.724	627
51.821	754
51.967	912
51.978	764
52.087	610
52.102	387
52.163	346
52.187	287
52.298	277
52.355	476
52.419	503
52.447	498
52.502	461
52.581	460
52.646	597
52.772	837
52.787	915
52.789	923
52.831	977
52.833	977
52.862	1078
53.014	584
53.101	304
53.251	258
53.465	514
53.491	436
53.580	449
53.639	479
53.678	539
53.700	606
53.760	653
53.853	654
53.882	610
53.941	587
54.005	556
54.120	594
54.241	846
54.329	945
54.398	973
54.479	961
54.512	1048
54.571	1099
54.660	1043
54.722	904
54.754	814
54.813	628
54.877	434
54.960	261
55.111	87
55.142	107
55.352	577
55.417	398
55.472	375
55.533	527
55.655	910
55.710	1005
55.800	915
55.830	894
55.897	899
55.925	942
56.046	927
56.163	827
56.344	709
56.461	826
56.493	917
56.652	1152
56.729	1142
56.761	1110
56.813	1077
56.851	1147
56.941	1124
57.001	1243
57.071	1476
57.090	1572
57.151	1545
57.207	1561
57.243	1590
57.338	1425
57.512	1268
57.574	1252
57.693	1367
57.827	1502
57.834	1624
57.851	1636
57.869	1815
58.119	1816
58.128	1777
58.128	1718
58.147	1696
58.186	1656
58.200	1631
58.232	1651
58.327	1780
58.414	1889
58.474	1869
58.536	1739
58.593	1613
58.680	1496
58.740	1545
58.800	1584
58.933	1658
58.956	1651
59.010	1679
59.043	1622
59.133	1660
59.193	1528
59.312	1449
59.401	1187
59.494	1152
59.641	1387
59.699	1450
59.799	1303
59.852	1085
59.927	1014
59.944	963
60.002	895
60.067	908
60.125	1018
60.180	1120
60.216	1216
60.273	1356
60.307	1366
60.392	1336
60.455	1453
60.513	1254
60.573	1103
60.631	1093
60.691	1067
60.780	985
60.843	1026
60.930	1077
60.973	1075
61.110	1136
61.181	1136
61.187	1030
61.204	945
61.266	858
61.298	845
61.346	823
61.354	775
61.590	452
61.624	426
61.682	321
61.742	166
61.775	147
61.833	135
61.897	161
61.983	222
62.192	236
62.346	186
62.403	197
62.433	204
62.435	208
62.611	348
62.645	383
62.794	386
62.823	378
62.972	369
63.034	348
63.121	241
63.213	182
63.245	141
63.271	124
63.341	88
63.390	47
63.425	53
63.510	116
63.544	185
63.631	335
63.692	388
63.751	450
63.931	494
64.026	478
64.233	585
64.330	481
64.382	409
64.412	421
64.445	492
64.473	462
64.530	503
64.594	586
64.623	642
64.682	701
64.820	705
64.853	626
64.881	537
64.902	461
64.983	313
65.015	289
65.130	410
65.220	555
65.252	571
65.430	794
65.524	983
65.560	1017
65.732	1247
65.738	1250
65.794	1241
65.796	1236
65.856	1188
65.916	1113
65.972	1033
66.004	967
66.150	841
66.302	911
66.331	985
66.334	998
66.365	1008
66.452	1123
66.515	1092
66.600	1008
66.691	1025
66.752	1042
66.783	1086
66.851	1161
66.901	1143
66.964	1161
66.991	1157
67.020	1138
67.056	1052
67.143	970
67.180	900
67.202	872
67.242	839
67.320	781
67.357	765
67.379	758
67.412	730
67.443	726
67.443	720
67.474	717
67.504	649
67.530	642
67.537	587
67.620	514
67.684	552
67.744	623
67.779	680
67.835	801
67.981	743
68.032	698
68.071	660
68.162	622
68.193	589
68.252	537
68.340	462
68.400	418
68.403	416
68.432	416
68.610	573
68.641	580
68.643	585
68.674	598
68.741	696
68.905	739
68.973	686
69.002	680
69.155	713
69.373	829
69.484	756
69.545	744
69.663	753
69.753	857
69.923	733
70.032	679
70.040	650
70.082	647
70.083	649
70.173	707
70.232	798
70.272	788
70.325	720
70.385	744
70.472	807
70.531	805
70.591	787
70.680	702
70.741	668
70.838	555
70.899	606
70.952	706
71.018	747
71.102	769
71.198	711
71.280	685
71.282	682
71.311	680
71.491	643
71.532	719
71.610	682
71.670	685
71.706	618
71.851	596
71.891	598
71.945	543
72.001	583
72.102	630
72.131	665
72.212	648
72.254	634
72.300	627
72.452	617
72.484	646
72.694	613
72.781	635
72.784	636
72.816	631
72.842	628
72.876	617
72.915	596
72.961	589
73.028	620
73.110	644
73.237	604
73.293	594
73.395	601
73.471	684
73.590	596
73.620	591
73.681	590
73.834	551
73.868	573
74.100	673
74.191	820
74.226	844
74.312	902
74.401	974
74.435	984
74.551	955
74.612	964
74.672	1040
74.731	1083
74.820	1117
74.874	1089
74.888	1053
74.944	895
74.972	878
74.975	884
75.010	913
75.063	834
75.151	870
75.210	868
75.278	938
75.281	938
75.330	835
75.365	779
75.397	728
75.487	752
75.551	760
75.662	634
75.787	452
75.879	722
75.933	794
75.962	799
76.058	711
76.110	692
76.202	782
76.410	1126
76.474	1073
76.501	1032
76.561	919
76.713	701
76.773	553
76.833	410
76.924	326
76.952	265
76.987	259
76.992	258
77.071	236
77.132	233
77.167	285
77.283	358
77.371	378
77.404	390
77.491	409
77.596	468
77.732	506
77.770	523
77.884	549
77.972	583
78.004	592
78.032	634
78.066	661
78.243	574
78.390	507
78.421	513
78.480	538
78.544	531
78.602	483
78.606	477
78.670	471
78.780	424
78.873	414
78.961	407
78.994	418
79.050	377
79.054	377
79.115	368
79.175	327
79.203	316
79.292	227
79.350	288
79.356	290
79.411	264
79.446	259
79.450	229
79.473	262
79.530	274
79.711	134
79.801	159
79.870	193
79.871	194
79.893	276
79.982	331
79.984	328
80.042	312
80.073	324
80.160	348
80.250	356
80.285	352
80.405	342
80.491	374
80.586	489
80.644	480
80.670	495
80.794	502
81.094	720
81.154	870
81.273	885
81.305	921
81.480	877
81.513	866
81.630	994
81.697	1055
81.753	1081
81.787	1118
81.842	1111
81.971	1006
81.973	999
82.140	860
82.366	869
82.510	805
82.590	809
82.624	845
82.740	1041
82.802	1039
82.810	1010
82.865	935
82.958	1057
82.986	1089
83.043	1105
83.100	1047
83.162	996
83.221	1052
83.288	1121
83.371	1092
83.403	1072
83.491	1084
83.520	1111
83.580	1088
83.613	1097
83.671	1130
83.791	1130
83.858	1015
83.882	991
83.970	988
84.031	1034
84.091	1062
84.154	1103
84.184	1145
84.215	1125
84.242	1087
84.300	956
84.360	967
84.393	961
84.424	945
84.540	997
84.573	1020
84.604	1012
84.634	980
84.728	855
84.752	820
84.813	782
84.814	782
84.876	770
84.932	752
84.993	806
85.055	866
85.111	890
85.234	878
85.292	886
85.321	918
85.354	945
85.442	914
85.504	883
85.590	825
85.805	804
85.935	862
85.980	851
86.051	862
86.162	856
86.250	836
86.310	844
86.433	888
86.490	893
86.551	814
86.641	703
86.673	638
86.763	577
86.830	598
86.837	608
86.942	825
86.974	891
87.030	918
87.101	900
87.182	787
87.216	741
87.301	591
87.363	553
87.481	458
87.541	474
87.574	512
87.693	545
87.723	549
87.911	621
87.996	614
88.200	729
88.233	739
88.380	700
88.410	738
88.413	744
88.474	759
88.503	785
88.537	793
88.624	781
88.740	946
88.840	923
88.933	841
88.953	835
89.012	880
89.070	902
89.102	917
89.135	957
89.191	1042
89.226	1083
89.312	1200
89.349	1225
89.374	1231
89.608	1179
89.641	1103
89.648	1078
89.676	1072
89.774	1024
89.822	1018
89.898	1021
89.933	1008
89.975	1030
90.033	1099
90.124	1067
90.182	1067
90.266	1008
90.306	972
90.423	954
90.637	979
90.691	909
90.853	794
90.875	800
90.936	845
90.992	885
91.148	1025
91.235	1034
91.262	1008
91.295	979
91.326	945
91.382	982
91.442	1062
91.530	1114
91.595	1138
91.656	983
91.749	872
91.771	936
91.836	970
91.880	1080
91.950	1099
91.953	1100
91.982	1103
92.073	1068
92.130	995
92.163	975
92.192	970
92.289	988
92.340	989
92.525	933
92.554	928
92.645	869
92.792	884
92.857	892
92.973	1027
93.004	1041
93.092	1030
93.134	1004
93.152	986
93.272	920
93.304	899
93.362	853
93.420	705
93.481	639
93.543	709
93.661	875
93.725	926
93.757	941
93.812	945
93.875	770
93.961	667
93.993	626
94.023	589
94.059	620
94.114	600
94.173	689
94.264	751
94.415	992
94.441	981
94.500	1020
94.504	1020
94.651	880
94.683	862
94.803	865
94.861	916
94.897	925
94.981	865
95.040	875
95.041	875
95.074	857
95.134	864
95.282	606
95.362	615
95.405	740
95.492	697
95.525	791
95.581	688
95.671	799
95.731	682
95.855	807
95.921	830
95.973	902
96.093	753
96.128	735
96.214	733
96.272	766
96.308	765
96.335	856
96.395	820
96.462	781
96.542	750
96.547	749
96.602	717
96.668	665
96.810	496
96.906	551
96.966	579
97.051	743
97.087	762
97.204	774
97.264	766
97.325	693
97.351	675
97.446	715
97.501	769
97.571	792
97.650	837
97.710	727
97.742	756
97.778	735
97.835	772
97.922	819
97.980	971
98.223	512
98.283	571
98.340	572
98.430	741
98.509	713
98.552	916
98.631	998
98.642	1006
98.703	907
98.732	769
98.776	723
98.822	676
98.885	594
98.922	578
98.976	510
99.063	519
99.096	515
99.184	490
99.220	587
99.364	501
99.453	533
99.515	622
99.575	647
99.630	780
99.674	828
99.723	828
99.813	793
99.964	697
99.992	732
100.081	1031
100.147	1099
100.176	1194
100.234	1142
100.353	936
100.363	827
100.413	813
100.442	660
100.593	734
100.692	1103
100.695	1030
100.742	1002
100.801	924
100.871	961
101.000	985
101.205	1037
101.297	668
101.472	551
101.619	558
101.644	542
101.655	551
101.953	725
102.091	741
102.212	732
102.284	719
102.355	718
102.399	741
102.581	1150
102.595	1216
102.711	1255
102.778	1236
102.793	1202
102.803	1164
102.839	1108
103.174	1002
103.494	947
103.573	961
103.585	1029
103.623	1048
103.792	1080
103.812	1050
103.820	1040
103.821	1022
104.045	920
104.050	919
104.089	633
104.107	564
104.139	524
104.151	544
104.174	545
104.187	539
104.202	541
104.205	545
104.254	510
104.328	811
104.355	894
104.406	931
104.458	894
104.503	848
104.504	853
104.529	828
104.533	827
104.570	795
104.625	789
104.646	840
104.738	790
104.771	789
104.863	768
105.018	851
105.269	702
105.284	674
105.293	692
105.309	746
105.469	652
105.514	671
105.544	646
105.637	609
105.940	614
105.997	613
106.014	487
106.045	718
106.086	826
106.098	875
106.197	845
106.228	922
106.243	1111
106.293	1138
106.347	1250
106.507	1347
106.541	1283
106.598	1208
106.687	1165
106.697	1103
106.726	978
106.804	1148
106.901	1215
107.109	1290
107.119	1233
107.129	1190
107.312	854
107.374	857
107.491	781
107.614	1041
107.642	1076
107.732	1095
107.793	1020
107.828	954
107.884	929
107.922	930
107.973	924
108.005	898
108.065	870
108.097	842
108.160	844
108.249	842
108.302	804
108.392	763
108.452	783
108.542	724
108.574	711
108.697	739
108.728	735
108.829	679
108.837	677
108.967	675
108.994	669
109.021	665
109.270	686
109.303	695
109.351	688
109.443	711
109.472	755
109.568	865
109.626	874
109.711	879
109.773	868
109.834	876
109.892	893
109.952	923
110.011	957
110.018	956
110.078	928
110.137	914
110.166	904
110.258	879
110.311	874
110.341	884
110.492	1025
110.533	1028
110.557	1054
110.615	1035
110.679	1155
110.794	1062
110.855	1057
110.971	1084
111.109	1162
111.217	1083
111.281	1066
111.335	1194
111.455	1121
111.513	1136
111.692	1273
111.782	1254
111.851	1246
111.931	1188
111.967	1109
112.025	1113
112.087	1167
112.113	1174
112.172	1243
112.232	1366
112.358	1521
112.386	1523
112.471	1360
112.536	1223
112.652	1004
112.654	1000
112.781	937
112.809	900
112.875	885
112.937	920
112.991	986
113.084	1101
113.192	990
113.226	866
113.408	747
113.461	670
113.534	714
113.552	714
113.582	712
113.704	932
113.826	801
113.944	823
113.973	1206
114.007	1293
114.112	1394
114.138	1426
114.183	1406
114.250	1354
114.332	1259
114.395	1251
114.494	1085
114.512	1061
114.543	1056
114.573	1069
114.634	1093
114.721	1228
114.723	1231
114.902	1037
114.962	979
115.024	902
115.087	801
115.146	743
115.327	630
115.414	575
115.536	727
115.595	761
115.656	766
115.684	708
115.772	576
115.805	539
115.892	583
115.970	591
115.987	575
116.061	564
116.105	611
116.192	538
116.223	460
116.307	410
116.316	349
116.342	346
116.384	353
116.431	299
116.525	332
116.793	660
116.882	675
116.920	717
117.001	766
117.037	773
117.064	779
117.128	755
117.212	709
117.251	722
117.308	784
117.372	836
117.426	868
117.517	795
117.611	745
117.633	722
117.721	793
117.783	808
117.815	865
117.909	995
117.939	990
117.995	963
118.051	1090
118.145	815
118.203	836
118.264	759
118.328	771
118.384	826
118.444	877
118.502	954
118.623	1004
118.681	928
118.787	971
118.833	880
118.967	749
119.013	782
119.045	789
119.082	794
119.103	785
119.165	822
119.191	877
119.253	995
119.432	1368
119.467	1398
119.492	1495
119.614	1434
119.647	1406
119.733	1167
119.825	1093
119.913	1152
119.945	1122
120.003	1006
120.064	974
120.068	912
120.185	869
120.244	892
120.301	903
120.336	918
120.369	919
120.393	902
120.422	925
120.455	970
120.514	994
120.604	1207
120.633	1236
120.752	960
120.815	1091
120.993	843
121.053	881
121.111	814
121.172	774
121.234	737
121.295	754
121.443	870
121.475	767
121.544	879
121.592	1007
121.656	1061
121.715	1041
121.772	935
121.889	849
121.925	762
121.956	766
122.016	826
122.101	940
122.166	968
122.168	957
122.224	897
122.281	882
122.343	824
122.463	590
122.493	740
122.673	870
122.740	913
122.796	962
122.851	1019
122.861	1024
122.884	1025
122.944	1009
122.950	1007
123.032	895
123.063	908
123.100	909
123.260	947
123.304	965
123.333	930
123.421	1116
123.457	1137
123.485	1117
123.517	1072
123.665	1116
123.751	903
123.841	887
123.925	1104
123.935	1065
124.091	757
124.141	759
124.174	796
124.263	1035
124.321	1153
124.473	1199
124.504	1137
124.564	1060
124.623	833
124.670	786
124.685	856
124.779	832
124.833	630
124.903	566
124.975	548
125.023	870
125.134	816
125.224	1141
125.283	1138
125.345	1007
125.412	979
125.413	979
125.431	1027
125.498	986
125.551	935
125.588	923
125.706	795
125.763	853
125.792	911
125.895	897
125.913	788
125.945	783
126.121	866
126.165	860
126.211	979
126.246	993
126.281	1030
126.333	1128
126.399	940
126.486	734
126.664	863
126.752	707
126.832	825
126.878	847
126.962	684
127.021	575
127.113	492
127.174	444
127.264	343
127.323	446
127.395	542
127.445	664
127.535	943
127.684	693
127.716	531
127.784	444
127.833	423
127.882	458
127.921	570
127.983	725
128.223	837
128.313	950
128.491	966
128.496	985
128.521	966
128.551	932
128.621	773
128.671	671
128.731	600
128.794	598
128.827	472
128.941	632
128.976	683
129.033	740
129.075	725
129.183	662
129.244	637
129.268	634
129.424	517
129.482	626
129.513	903
129.544	927
129.575	990
129.633	966
129.753	928
129.822	922
129.847	949
129.933	1058
129.997	1140
130.054	1156
130.083	1160
130.088	1156
130.203	930
130.298	721
130.501	683
130.621	791
130.745	819
130.804	804
130.807	756
130.836	746
130.892	695
130.956	610
131.049	610
131.051	616
131.107	574
131.163	500
131.221	640
131.316	752
131.345	765
131.377	791
131.522	983
131.583	904
131.649	999
131.766	1158
131.791	1164
131.829	1152
131.932	1229
132.001	1000
132.245	896
132.301	948
132.322	955
132.392	1044
132.465	1048
132.513	1012
132.635	996
132.816	1086
132.847	1068
132.875	1016
133.060	1189
133.141	998
133.201	968
133.324	1071
133.356	1058
133.442	993
133.509	963
133.625	1068
133.685	1104
133.742	1279
133.781	1305
133.835	1296
133.892	1181
133.953	1095
134.043	986
134.107	1038
134.224	1276
134.312	1179
134.375	1108
134.672	842
134.740	816
134.743	811
134.797	953
134.884	1150
134.947	1208
134.973	1217
135.064	1278
135.121	1163
135.183	1098
135.243	1013
135.295	954
135.483	1014
135.513	1069
135.573	1086
135.635	1076
135.636	1076
135.695	947
135.754	927
135.829	1041
135.875	1118
135.918	1099
135.994	1102
136.115	1277
136.173	1257
136.205	1171
136.683	1159
136.743	1115
136.775	1095
136.840	1158
136.925	1160
136.993	1100
137.016	1096
137.042	1047
137.106	1033
137.170	939
137.289	873
137.294	876
137.378	786
137.465	677
137.495	619
137.564	591
137.642	786
137.852	720
137.915	732
137.973	760
137.975	804
138.006	786
138.092	845
138.131	857
138.211	884
138.278	819
138.364	640
138.396	667
138.452	690
138.545	675
138.572	672
138.602	656
138.816	927
138.968	930
138.996	762
139.023	662
139.083	546
139.142	516
139.176	506
139.234	536
139.269	579
139.325	669
139.387	693
139.443	809
139.592	772
139.659	748
139.742	687
139.805	715
139.900	754
139.957	709
140.013	721
140.074	791
140.136	767
140.168	735
140.196	716
140.255	806
140.314	870
140.373	854
140.473	837
140.584	876
140.676	995
140.733	1020
140.829	1025
140.929	1032
140.945	1051
141.038	1173
141.124	1191
141.273	1043
141.274	1043
141.391	1159
141.423	1185
141.485	1162
141.526	1134
141.574	1077
141.633	1061
141.727	1077
141.791	1095
141.887	1051
141.934	1029
141.966	1028
142.023	1007
142.082	960
142.144	844
142.174	818
142.266	819
142.296	926
142.355	968
142.453	971
142.535	1020
142.594	1047
142.633	1052
142.742	1018
142.832	1061
142.923	919
142.989	769
143.015	730
143.072	1135
143.165	1309
143.343	1195
143.405	1139
143.407	1139
143.435	1113
143.496	964
143.735	1059
143.761	1084
143.827	1117
143.897	1125
143.904	1115
143.942	1099
144.005	1108
144.191	1307
144.276	1392
144.393	1531
144.454	1475
144.486	1462
144.514	1463
144.603	1398
144.670	1257
144.698	1095
144.753	1017
144.822	996
144.964	940
144.995	945
145.030	934
145.054	930
145.096	911
145.173	875
145.234	753
145.322	803
145.412	981
145.565	1247
145.622	1270
145.713	1066
145.747	1001
145.804	832
145.927	827
145.961	828
145.988	880
146.042	830
146.132	779
146.195	713
146.222	714
146.252	718
146.373	549
146.402	537
146.467	579
146.552	685
146.613	860
146.734	984
146.852	997
146.944	902
146.977	868
147.042	838
147.046	836
147.095	898
147.122	900
147.155	874
147.213	917
147.302	1084
147.364	1128
147.396	1155
147.462	1231
147.575	1229
147.606	1208
147.723	1104
147.814	1271
147.873	1303
147.935	1295
147.995	1256
148.036	1237
148.055	1208
148.113	1118
148.172	979
148.204	950
148.279	998
148.322	1025
148.442	1108
148.453	1112
148.564	1121
148.628	1088
148.715	1073
148.772	1126
148.805	1114
148.806	1114
148.835	1101
148.895	1196
148.968	1225
149.047	1118
149.122	1128
149.233	1294
149.269	1281
149.291	1265
149.598	1083
149.598	1076
149.608	1010
149.779	1037
150.034	737
150.067	687
150.199	678
150.227	657
150.253	758
150.310	842
150.410	842
150.428	865
150.463	904
150.492	899
150.609	924
150.619	789
150.636	760
150.706	780
150.786	856
150.884	819
150.935	838
150.968	841
151.028	908
151.084	1024
151.088	1025
151.233	873
151.293	963
151.371	984
151.420	1068
151.488	1045
151.576	1006
151.581	986
151.656	904
151.860	988
151.933	978
151.993	991
152.046	935
152.134	900
152.231	851
152.365	1008
152.395	1068
152.418	984
152.420	954
152.615	907
152.663	936
152.775	939
152.776	941
152.805	990
152.832	991
152.888	976
152.973	1068
153.002	1080
153.064	1094
153.155	1049
153.242	1037
153.302	1003
153.336	1038
153.395	1072
153.430	1131
153.487	1183
153.545	1293
153.634	1582
153.725	1404
153.783	1360
153.854	1287
153.908	1271
153.974	1240
154.023	1274
154.093	1378
154.173	1288
154.233	1449
154.237	1480
154.293	1741
154.384	1824
154.446	1302
154.503	928
154.567	873
154.683	767
154.774	884
154.838	935
154.893	878
154.928	872
155.075	1017
155.113	1026
155.215	1107
155.254	1112
155.289	1071
155.316	898
155.376	777
155.435	790
155.525	793
155.584	930
155.702	997
155.733	994
155.793	821
155.853	788
155.975	756
156.094	804
156.097	799
156.123	759
156.242	661
156.312	680
156.316	687
156.455	816
156.542	874
156.545	882
156.574	969
156.604	977
156.666	1040
156.723	933
156.782	947
156.843	968
156.932	953
156.993	933
157.054	1074
157.235	1147
157.386	1069
157.445	977
157.505	907
157.567	840
157.623	830
157.686	842
157.746	842
157.802	834
157.864	769
158.015	855
158.105	950
158.193	909
158.225	877
158.227	885
158.260	935
158.349	849
158.405	829
158.507	754
158.585	806
158.642	808
158.707	830
158.795	754
158.855	715
158.978	738
159.087	671
159.246	836
159.370	1118
159.455	1037
159.458	1029
159.492	1003
159.544	938
159.577	834
159.694	792
159.699	791
159.786	737
159.831	702
159.832	693
159.848	670
159.933	626
159.993	706
160.057	730
160.086	940
160.160	1159
160.242	1112
160.333	833
160.352	730
160.537	849
160.598	873
160.624	863
160.625	861
160.694	771
160.743	777
160.814	814
160.834	859
160.895	836
160.954	745
161.004	708
161.164	664
161.166	665
161.199	674
161.369	574
161.406	633
161.494	729
161.532	746
161.617	722
161.704	749
161.889	742
161.922	792
161.948	809
162.004	909
162.064	895
162.182	915
162.244	962
162.334	987
162.425	989
162.456	1127
162.572	1163
162.634	1140
162.667	1147
162.786	1070
162.828	1042
162.902	941
162.996	956
163.082	1002
163.148	1089
163.179	1223
163.245	1202
163.299	1120
163.520	1121
163.685	869
163.717	910
163.875	777
163.905	770
163.936	706
163.992	693
164.044	747
164.052	747
164.110	671
164.169	674
164.234	653
164.349	594
164.397	572
164.524	616
164.562	647
164.625	730
164.677	705
164.732	663
164.854	668
164.944	646
164.977	650
165.036	721
165.098	864
165.216	859
165.278	818
165.373	741
165.425	750
165.573	890
165.635	1000
165.635	1000
165.755	1283
165.813	1369
165.882	1227
165.934	1115
165.993	903
166.055	768
166.174	765
166.205	803
166.292	695
166.353	661
166.414	676
166.450	813
166.502	1083
166.715	1060
166.774	938
166.844	1041
166.896	959
166.952	882
166.994	877
167.048	894
167.102	1015
167.134	1019
167.137	1015
167.289	876
167.291	929
167.321	953
167.343	1011
167.375	1095
167.466	1105
167.557	921
167.644	842
167.732	1104
167.796	1258
167.854	1332
167.916	1352
167.952	1337
168.004	1286
168.098	1270
168.183	1184
168.368	1050
168.458	1023
168.518	1173
168.572	1433
168.580	1421
168.634	1204
168.723	1039
168.758	1132
169.087	1130
169.144	1089
169.232	886
169.267	791
169.296	664
169.352	652
169.385	761
169.443	839
169.534	868
169.577	833
169.624	828
169.688	830
169.803	598
169.834	597
169.955	585
169.984	591
170.045	721
170.076	723
170.108	701
170.193	704
170.226	675
170.258	662
170.314	740
170.374	845
170.438	930
170.530	950
170.587	887
170.702	942
170.793	1032
170.858	1108
170.915	1115
171.032	1086
171.097	995
171.159	944
171.274	872
171.342	946
171.395	954
171.429	936
171.484	901
171.549	1034
171.722	812
171.757	770
171.759	767
171.852	864
171.878	911
171.914	950
171.974	948
171.976	943
172.137	984
172.138	1040
172.202	1165
172.207	1142
172.321	1081
172.613	867
172.852	984
172.870	951
173.057	969
173.081	971
173.134	973
173.248	931
173.255	906
173.392	679
173.409	685
173.439	719
173.556	801
173.608	649
173.706	742
173.716	759
173.735	902
173.767	916
173.836	964
174.067	989
174.080	908
174.104	820
174.120	888
174.156	997
174.334	882
174.456	762
174.549	791
174.623	782
174.659	765
174.740	738
174.777	695
175.032	573
175.177	834
175.180	830
175.263	846
175.391	749
175.449	705
175.476	726
175.535	699
175.592	715
175.682	753
175.748	805
175.778	830
175.834	846
175.936	765
175.983	684
176.069	620
176.215	509
176.280	377
176.290	374
176.373	400
176.434	459
176.524	496
176.614	424
176.673	295
176.734	307
176.800	315
176.827	597
176.987	747
177.010	804
177.015	800
177.034	776
177.124	748
177.159	765
177.190	864
177.243	836
177.304	829
177.392	767
177.453	753
177.517	737
177.642	723
177.813	1024
177.818	1020
177.847	1017
177.965	916
178.085	1034
178.174	913
178.237	738
178.324	849
178.387	963
178.444	1088
178.505	1210
178.534	1356
178.593	1465
178.683	1448
178.775	1356
179.141	920
179.143	904
179.153	878
179.471	893
179.482	884
179.512	786
179.523	792
179.565	831
179.595	741
179.634	766
179.641	717
179.744	506
179.793	363
179.833	308
179.928	264
179.992	301
180.046	350
180.072	500
180.089	650
180.121	772
180.294	886
180.320	968
180.327	964
180.342	701
180.384	585
180.425	588
180.459	703
180.547	679
180.695	592
180.950	531
180.965	650
180.993	675
180.997	737
181.044	980
181.057	1159
181.129	1252
181.200	1138
181.222	983
181.300	644
181.340	586
181.348	587
181.479	757
181.505	778
181.529	798
181.595	795
181.607	715
181.632	706
181.673	745
181.726	851
181.779	875
181.836	735
181.924	533
181.983	332
182.081	336
182.195	513
182.257	481
182.304	471
182.373	701
182.409	929
182.525	1271
182.584	1288
182.654	1100
182.703	925
182.798	691
182.827	661
182.976	761
183.219	899
183.310	1148
183.423	1278
183.451	1249
183.544	1193
183.638	1270
183.692	1235
183.727	1200
183.753	1194
183.813	1072
183.951	1138
183.997	1149
184.154	1033
184.332	1015
184.340	1030
184.354	1047
184.451	1137
184.509	1008
184.593	898
184.678	833
184.715	849
184.782	839
184.834	837
184.897	845
184.956	848
185.015	826
185.076	731
185.179	646
185.313	652
185.360	658
185.407	720
185.434	776
185.464	784
185.492	822
185.558	847
185.743	873
185.769	866
185.854	744
185.917	685
186.036	595
186.196	536
186.214	535
186.244	603
186.513	598
186.667	707
186.733	691
186.782	663
186.832	661
186.878	578
186.932	484
186.991	402
186.998	420
187.051	462
187.175	576
187.354	622
187.355	636
187.431	621
187.564	535
187.595	508
187.622	518
187.681	543
187.744	565
187.864	649
187.990	726
188.073	842
188.107	891
188.226	830
188.346	697
188.405	598
188.554	425
188.838	613
188.888	697
188.944	744
188.979	752
189.031	685
189.135	598
189.186	521
189.215	417
189.276	413
189.306	400
189.396	397
189.428	453
189.460	475
189.514	467
189.611	306
189.668	210
189.722	166
189.786	233
189.843	325
189.880	370
189.937	405
189.995	522
190.095	565
190.144	613
190.245	609
190.295	609
190.385	480
190.414	463
190.533	437
190.621	368
190.655	350
190.741	317
190.812	361
190.898	417
190.958	499
190.990	501
191.319	444
191.676	373
191.821	363
191.889	479
191.987	600
192.073	612
192.133	601
192.139	594
192.158	588
192.230	643
192.306	692
192.367	665
192.398	622
192.483	630
192.537	657
192.586	614
192.637	548
192.664	504
192.697	417
192.771	362
192.814	352
192.874	435
192.963	488
193.174	529
193.203	543
193.359	629
193.478	520
193.741	429
193.808	445
193.898	479
193.954	540
193.985	565
194.074	647
194.105	652
194.195	639
194.272	664
194.289	668
194.347	678
194.405	676
194.438	669
194.497	689
194.583	664
194.643	607
194.732	483
194.825	433
194.914	513
194.944	539
195.004	687
195.066	781
195.152	811
195.214	749
195.271	710
195.278	691
195.301	632
195.367	461
195.455	402
195.494	409
195.573	550
195.633	553
195.721	481
195.788	473
195.844	417
195.850	406
195.968	327
195.996	308
196.113	417
196.144	415
196.202	338
196.231	327
196.396	360
196.554	475
196.577	489
196.627	512
196.685	559
196.689	563
196.745	609
196.749	621
196.811	617
196.958	631
197.012	614
197.102	632
197.164	612
197.232	567
197.377	536
197.521	674
197.554	703
197.704	747
197.738	826
197.828	866
197.918	884
198.069	823
198.097	816
198.179	841
198.216	865
198.302	961
198.365	953
198.496	893
198.541	906
198.575	913
198.667	883
198.694	850
198.724	842
198.752	865
198.783	871
198.817	933
198.910	983
198.936	975
199.001	999
199.083	1021
199.149	1006
199.234	883
199.322	762
199.413	684
199.442	687
199.503	766
199.683	777
199.713	804
199.744	805
199.833	737
199.872	749
199.951	733
200.047	697
200.131	644
200.168	573
200.252	567
200.312	545
200.378	599
200.469	695
200.523	687
200.586	696
200.642	674
200.681	673
200.766	615
200.830	600
200.854	539
200.951	487
201.414	506
201.475	551
201.566	555
201.568	589
201.921	554
201.966	590
202.037	600
202.059	623
202.117	635
202.128	648
202.270	762
202.302	744
202.328	723
202.360	717
202.585	688
202.602	644
202.633	642
202.768	724
202.787	764
202.799	814
202.819	898
202.843	933
202.997	996
203.034	914
203.068	853
203.084	803
203.097	726
203.106	673
203.115	648
203.146	627
203.195	622
203.207	622
203.232	620
203.261	671
203.325	722
203.377	754
203.406	811
203.475	846
203.510	846
203.583	815
203.594	803
203.778	924
203.885	762
204.047	736
204.059	647
204.064	608
204.131	505
204.195	467
204.212	472
204.225	505
204.342	620
204.394	637
204.452	626
204.517	687
204.604	765
204.669	673
204.728	628
204.842	648
204.916	645
204.996	626
205.011	603
205.153	525
205.197	524
205.236	509
205.301	498
205.414	524
205.447	518
205.698	452
205.717	448
205.808	459
205.939	513
205.986	525
206.133	643
206.181	687
206.194	697
206.256	710
206.314	701
206.315	701
206.371	697
206.435	694
206.554	767
206.612	735
206.795	730
206.833	750
206.882	769
206.951	787
207.001	780
207.091	830
207.129	866
207.151	873
207.160	873
207.221	836
207.272	801
207.368	800
207.452	898
207.546	889
207.606	817
207.666	787
207.696	789
207.752	787
207.813	778
207.877	787
207.916	788
207.937	805
207.995	818
208.025	785
208.083	823
208.157	805
208.221	762
208.263	773
208.321	853
208.385	873
208.416	856
208.473	822
208.480	802
208.562	696
208.653	617
208.714	570
208.753	576
208.801	572
208.836	552
208.954	546
208.984	545
209.015	545
209.050	522
209.137	619
209.253	526
209.314	494
209.437	579
209.495	594
209.589	602
209.647	606
209.734	593
209.825	486
209.902	471
209.925	468
209.961	506
209.974	502
210.033	542
210.094	467
210.125	455
210.185	512
210.279	554
210.366	514
210.384	528
210.425	551
210.571	584
210.605	585
210.680	634
210.727	633
210.847	593
210.879	640
210.930	655
211.048	660
211.132	558
211.152	542
211.206	496
211.345	513
211.486	474
211.506	530
211.533	553
211.593	554
211.653	489
211.765	411
211.836	437
211.915	516
211.952	501
211.982	519
212.076	552
212.168	717
212.260	760
212.266	749
212.347	788
212.373	819
212.526	763
212.582	734
212.648	732
212.731	818
212.794	844
212.884	839
213.042	859
213.049	861
213.054	864
213.186	767
213.277	769
213.308	801
213.364	802
213.397	824
213.573	1058
213.634	1033
213.694	1128
213.755	1280
213.819	1528
213.880	1482
213.934	1306
213.993	1234
214.064	1196
214.090	1140
214.143	1128
214.231	1149
214.386	1140
214.505	1209
214.622	1174
214.713	1150
214.745	1172
215.011	1288
215.101	1240
215.197	1221
215.198	1217
215.226	1206
215.342	1176
215.407	1156
215.493	1215
215.551	1284
215.703	1015
215.734	975
215.822	1273
215.928	1304
215.949	1339
215.976	1338
216.043	1288
216.209	1181
216.244	1187
216.301	1176
216.305	1177
216.363	1249
216.514	1319
216.663	1398
216.783	1296
216.843	1343
216.972	1396
217.055	1422
217.103	1398
217.146	1370
217.210	1316
217.235	1270
217.265	1244
217.323	1174
217.370	1153
217.413	1160
217.475	1166
217.569	1103
217.623	1031
217.690	1010
217.773	1053
217.833	1063
217.931	1178
218.012	1134
218.073	1137
218.165	1139
218.195	1131
218.311	1168
218.345	1154
218.413	1136
218.467	1164
218.524	1163
218.612	1180
218.703	1198
218.855	1138
218.978	1051
219.014	1013
219.065	1036
219.132	1064
219.272	1079
219.332	1102
219.489	1157
219.517	1180
219.573	1235
219.633	1223
219.676	1221
219.752	1138
219.814	1100
219.881	1084
219.881	1068
219.911	1089
220.002	1138
220.024	1140
220.084	1184
220.150	1178
220.174	1166
220.355	1328
220.412	1326
220.463	1291
220.534	1183
220.592	1213
220.743	1240
220.786	1225
221.062	1214
221.073	1299
221.076	1297
221.094	1161
221.104	1164
221.165	1176
221.225	1171
221.258	1179
221.318	1229
221.375	1164
221.402	1163
221.467	1206
221.527	1240
221.584	1238
221.646	1244
221.733	1263
221.769	1251
221.852	1275
221.927	1242
222.002	1207
222.067	1112
222.243	1203
222.306	1219
222.365	1254
222.400	1286
222.454	1297
222.512	1312
222.725	1265
222.787	1249
222.840	1198
222.846	1145
222.873	1130
222.909	1113
222.993	1117
223.028	1144
223.347	1196
223.388	1216
223.473	1261
223.478	1329
223.766	1350
223.769	1333
223.929	1218
224.022	1269
224.153	1296
224.172	1121
224.237	1222
224.282	1242
224.334	1207
224.439	1163
224.508	1162
224.519	1146
224.540	1100
224.620	936
224.632	746
224.709	644
224.801	477
224.824	160
224.931	23
224.948	78
225.036	158
225.052	260
225.124	285
225.426	308
225.659	345
225.696	395
225.856	613
225.937	894
225.949	884
225.955	843
225.966	784
225.977	552
226.002	510
226.037	548
226.092	560
226.120	544
226.153	534
226.175	534
226.240	487
226.295	549
226.332	614
226.409	736
226.443	891
226.503	999
226.533	995
226.594	931
226.713	1030
226.848	1000
227.007	864
227.017	776
227.022	767
227.040	772
227.044	774
227.144	797
227.245	744
227.296	690
227.326	669
227.331	671
227.349	674
227.388	628
227.508	661
227.531	654
227.585	593
227.798	690
228.029	698
228.040	765
228.053	810
228.079	916
228.139	866
228.176	934
228.198	957
228.221	931
228.305	782
228.339	801
228.399	783
228.455	794
228.516	818
228.588	798
228.645	725
228.731	732
228.761	735
228.816	804
228.932	937
228.997	956
229.023	1067
229.161	945
229.206	871
229.324	788
229.468	758
229.478	767
229.520	824
229.610	944
229.714	1055
229.717	1055
229.805	1047
229.888	1023
229.927	1035
230.021	1128
230.073	1139
230.175	1137
230.225	1115
230.316	1166
230.407	1281
230.469	1220
230.526	1147
230.614	1060
230.676	986
230.782	958
230.829	1116
230.952	1128
230.965	1092
231.060	975
231.066	970
231.076	948
231.110	919
231.124	915
231.167	956
231.194	1027
231.365	1104
231.453	849
231.514	852
231.544	851
231.609	889
231.665	922
231.726	926
231.726	926
231.756	906
231.992	982
232.056	796
232.174	649
232.234	699
232.269	807
232.359	925
232.446	780
232.482	663
232.538	685
232.623	823
232.712	934
232.776	949
232.871	967
232.895	971
232.982	857
233.017	815
233.074	858
233.108	896
233.207	944
233.230	946
233.256	921
233.330	869
233.354	763
233.410	776
233.526	1003
233.703	897
233.767	898
233.780	934
233.828	946
233.852	919
233.907	890
234.006	812
234.034	791
234.129	878
234.213	974
234.279	951
234.338	832
234.369	755
234.452	702
234.572	880
234.634	900
234.670	898
234.726	950
234.782	1024
234.844	1008
234.874	1045
235.034	1032
235.056	913
235.113	780
235.203	590
235.235	526
235.285	474
235.301	452
235.362	537
235.385	578
235.472	639
235.537	643
235.733	712
235.805	687
235.825	641
235.848	536
235.930	286
236.133	-227
236.168	-244
236.224	-93
236.287	104
236.343	243
236.375	308
236.492	693
236.493	693
236.650	1131
236.702	1118
236.751	1064
236.823	894
236.906	885
236.927	892
236.930	894
236.973	743
236.978	745
237.036	752
237.182	573
237.219	556
237.272	590
237.363	685
237.396	724
237.459	771
237.576	831
237.784	801
237.859	748
237.939	758
238.071	847
238.098	849
238.209	695
238.263	621
238.327	628
238.444	682
238.502	619
238.563	574
238.652	561
238.713	533
238.774	482
238.833	424
238.866	457
238.982	411
239.057	366
239.083	397
239.254	511
239.363	487
239.376	537
239.407	563
239.438	587
239.517	634
239.528	716
239.554	725
239.635	761
239.764	862
239.855	861
239.859	929
239.862	959
239.930	969
239.951	996
239.977	1010
240.073	984
240.073	982
240.153	982
240.200	950
240.214	962
240.321	965
240.337	973
240.422	1006
240.457	1050
240.512	1093
240.550	1119
240.607	1181
240.667	1163
240.724	1153
240.823	1186
240.876	1133
240.983	1123
241.032	1234
241.056	1246
241.110	1274
241.286	1261
241.432	1235
241.496	1265
241.511	1251
241.566	1220
241.605	1183
241.610	1181
241.683	1152
241.878	1219
241.899	1235
241.931	1209
242.028	1213
242.091	1248
242.109	1345
242.141	1398
242.271	1347
242.324	1262
242.336	1115
242.375	1089
242.440	1076
242.557	1117
242.657	1209
242.692	1434
242.780	1525
242.826	1377
242.956	1216
242.978	1163
243.008	1136
243.065	994
243.124	894
243.189	807
243.244	840
243.303	959
243.574	774
243.604	755
243.668	845
243.696	808
243.758	788
243.821	758
243.898	700
243.968	765
244.104	651
244.169	780
244.264	1015
244.419	1199
244.482	1191
244.537	1151
244.624	1000
244.956	875
244.965	867
244.968	868
245.008	866
245.018	884
245.028	916
245.076	1025
245.134	973
245.314	812
245.435	769
245.497	774
245.554	831
245.616	859
245.675	902
245.735	982
245.771	992
245.822	985
245.900	1026
245.955	1027
245.968	1027
246.035	1053
246.155	855
246.188	869
246.278	1004
246.335	1086
246.337	1085
246.402	1112
246.517	1092
246.602	1139
246.692	991
246.791	1121
246.794	1121
246.842	1086
246.945	1023
247.052	859
247.083	854
247.142	870
247.204	1031
247.236	1030
247.329	976
247.356	922
247.388	923
247.476	967
247.514	899
247.597	806
247.684	772
247.764	782
247.809	862
247.872	1000
247.930	1061
247.986	1009
248.085	887
248.132	848
248.165	836
248.169	832
248.254	834
248.338	860
248.402	878
248.469	769
248.525	741
248.528	741
248.528	743
248.587	813
248.589	820
248.618	853
248.675	886
248.824	871
248.884	858
248.915	855
248.974	888
249.034	887
249.158	870
249.256	781
249.273	760
249.336	770
249.545	753
249.678	855
249.696	865
249.753	860
249.829	903
249.875	917
249.942	949
249.966	955
250.026	984
250.114	966
250.174	952
250.234	1001
250.353	988
250.443	895
250.476	880
250.565	847
250.600	850
250.653	854
250.715	900
250.804	857
250.877	911
250.926	920
250.962	916
251.134	910
251.224	909
251.318	866
251.406	873
251.441	883
251.468	886
251.556	977
251.586	985
251.663	933
251.732	906
251.769	916
251.853	849
251.922	770
251.951	736
252.003	780
252.072	813
252.123	825
252.185	873
252.216	872
252.364	870
252.369	858
252.458	845
252.582	1082
252.636	1136
252.646	1131
252.926	1039
252.975	946
253.030	917
253.056	1041
253.150	1183
253.176	1167
253.237	1170
253.268	1181
253.353	1235
253.386	1228
253.475	1149
253.535	1131
253.600	1116
253.666	1105
253.713	1125
253.774	1122
253.877	1082
253.924	1010
253.989	1123
254.077	1126
254.134	1094
254.284	1087
254.290	1095
254.317	1105
254.372	1084
254.434	1018
254.497	980
254.552	960
254.619	913
254.824	935
254.977	974
255.125	1016
255.189	1003
255.244	989
255.333	968
255.398	941
255.483	848
255.575	819
255.664	790
255.729	741
255.757	716
255.758	716
255.784	683
255.853	661
255.923	579
255.966	620
256.025	605
256.113	721
256.177	726
256.233	647
256.390	315
256.456	275
256.504	276
256.594	305
256.672	360
256.714	392
256.834	452
256.901	443
257.004	485
257.019	525
257.077	560
257.176	565
257.228	608
257.403	828
257.436	833
257.470	837
257.495	789
257.556	699
257.673	588
257.738	541
257.825	629
257.903	654
257.978	757
258.094	903
258.127	880
258.187	789
258.246	695
258.314	706
258.393	813
258.456	865
258.573	707
258.636	629
258.725	559
258.793	576
258.796	577
258.882	578
259.086	657
259.148	704
259.159	701
259.164	698
259.170	599
259.278	842
259.581	1011
259.609	1009
259.769	897
259.810	904
259.972	915
260.000	854
260.105	962
260.164	998
260.248	1043
260.417	1161
260.490	1165
260.555	1178
260.587	1136
260.667	1080
260.705	1057
260.739	1034
260.796	984
260.837	921
260.924	924
261.087	1130
261.101	1182
261.281	1203
261.310	1202
261.365	1085
261.425	998
261.429	982
261.457	956
261.519	934
261.578	808
261.677	907
261.699	991
261.766	1057
261.827	1068
261.848	1074
261.954	1054
261.984	1002
262.012	946
262.146	824
262.316	901
262.357	943
262.369	994
262.371	1085
262.651	1014
262.659	974
262.669	852
262.684	870
262.749	724
262.786	582
262.953	577
262.967	563
263.075	675
263.172	608
263.275	579
263.296	422
263.406	353
263.438	394
263.493	493
263.528	490
263.585	471
263.643	351
263.678	283
263.737	206
263.840	149
263.922	-9
263.968	20
264.008	160
264.071	329
264.125	503
264.185	682
264.248	886
264.304	1078
264.449	1058
264.469	1002
264.496	932
264.575	787
264.672	677
264.697	632
264.784	665
264.908	742
264.934	735
264.993	712
265.054	767
265.143	795
265.244	775
265.269	848
265.324	1022
265.422	1100
265.452	1071
265.505	1074
265.624	1098
265.626	1089
265.715	1094
265.775	1091
265.817	1081
265.879	1150
265.925	1215
265.954	1242
266.023	1289
266.074	1277
266.135	1214
266.196	1133
266.256	1046
266.287	959
266.383	968
266.434	947
266.495	969
266.573	983
266.615	907
266.715	755
266.765	638
266.826	636
266.868	655
266.916	665
266.974	670
267.007	644
267.125	692
267.158	731
267.275	604
267.336	568
267.394	582
267.455	677
267.458	682
267.576	681
267.642	567
267.695	567
267.700	575
267.755	606
267.794	614
267.816	613
267.934	676
267.997	644
268.063	559
268.214	366
268.265	338
268.413	489
268.448	446
268.504	555
268.569	663
268.624	738
268.836	688
268.926	725
269.003	706
269.043	661
269.105	667
269.173	704
269.226	724
269.447	771
269.467	788
269.527	729
269.586	645
269.711	770
269.770	789
269.932	694
269.978	620
270.008	585
270.094	534
270.129	538
270.220	490
270.298	461
270.337	472
270.395	466
270.511	446
270.546	333
270.578	319
270.671	223
270.727	291
270.784	369
270.876	456
270.936	475
270.970	457
271.054	478
271.115	516
271.237	466
271.297	388
271.326	387
271.386	384
271.425	423
271.508	438
271.777	625
271.899	781
271.954	806
271.957	803
271.986	783
272.075	756
272.136	736
272.217	695
272.313	901
272.374	963
272.494	901
272.525	878
272.613	799
272.654	775
272.767	738
272.826	801
272.858	844
272.896	927
272.983	938
273.035	965
273.095	960
273.158	948
273.222	969
273.244	967
273.368	910
273.398	899
273.454	873
273.766	750
273.788	710
273.884	718
273.939	736
274.053	767
274.144	814
274.213	790
274.215	782
274.234	735
274.293	799
274.354	845
274.534	788
274.632	743
274.656	760
274.897	851
274.965	835
275.107	824
275.283	777
275.289	736
275.374	700
275.469	876
275.526	910
275.557	958
275.617	968
275.706	935
275.738	906
275.823	840
275.920	773
275.976	689
276.068	734
276.123	749
276.190	780
276.273	860
276.335	858
276.368	908
276.426	935
276.488	925
276.517	890
276.615	648
276.697	616
276.874	541
276.927	680
276.967	620
277.027	659
277.085	619
277.112	619
277.147	614
277.234	620
277.323	511
277.408	461
277.421	345
277.569	425
277.625	569
277.695	622
277.767	751
277.804	793
277.897	810
277.926	930
277.929	936
277.983	957
278.039	1084
278.196	1124
278.288	1104
278.345	1024
278.356	1019
278.433	1009
278.494	981
278.556	944
278.643	930
278.703	941
278.768	943
278.826	910
278.943	829
279.007	794
279.158	572
279.234	536
279.305	588
279.365	727
279.394	822
279.486	959
279.547	968
279.633	946
279.695	878
279.755	810
279.877	739
279.936	752
280.001	898
280.182	1043
280.187	1116
280.273	1086
280.307	956
280.491	847
280.507	873
280.885	965
280.959	959
280.980	990
281.000	1119
281.056	1053
281.136	1011
281.337	914
281.435	983
281.445	1068
281.453	1100
281.468	1124
281.500	1077
281.625	989
281.661	1009
281.701	1019
281.730	1050
281.745	995
282.016	759
282.020	731
282.081	718
282.098	792
282.106	831
282.124	863
282.149	801
282.205	742
282.232	650
282.310	668
282.579	490
282.594	376
282.670	54
282.710	-273
282.795	-470
282.858	-482
282.919	-433
283.005	-294
283.116	-256
283.225	-280
283.357	-237
283.358	-212
283.411	-295
283.469	-550
283.538	-552
283.597	-553
283.629	-555
283.688	-544
283.745	-489
283.775	-425
283.808	-376
283.889	-301
283.931	-213
283.958	-116
284.018	15
284.074	181
284.135	315
284.230	385
284.316	382
284.515	387
284.540	436
284.575	499
284.589	572
284.834	878
284.885	971
284.988	1151
285.005	1273
285.015	1466
285.071	1505
285.112	1505
285.167	1542
285.184	1579
285.244	1768
285.343	1880
285.369	1834
285.426	1555
285.493	1454
285.555	1428
285.681	1488
285.683	1519
285.726	1540
285.761	1543
285.784	1590
285.866	1642
285.935	1669
285.983	1688
285.998	1674
286.056	1673
286.089	1696
286.146	1798
286.206	1891
286.267	1780
286.363	1547
286.415	1482
286.448	1483
286.509	1487
286.595	1368
286.654	1138
286.745	1137
286.867	772
286.940	733
286.973	475
287.170	-150
287.255	-226
287.291	-243
287.319	-259
287.374	-215
287.436	-184
287.441	-179
287.470	-134
287.554	-219
287.617	-289
287.675	-291
287.735	-328
287.772	-330
288.034	-348
288.094	-465
288.160	-526
288.247	-554
288.281	-526
288.337	-444
288.396	-350
288.429	-301
288.487	-185
288.547	-55
288.635	99
288.699	277
288.783	357
288.845	451
288.919	536
288.970	609
289.024	684
289.087	704
289.143	687
289.177	677
289.243	679
289.445	858
289.476	907
289.572	947
289.576	946
289.718	1115
289.835	1258
289.875	1265
289.902	1277
289.956	1342
290.081	1319
290.245	1351
290.268	1502
290.316	1535
290.326	1714
290.401	1748
290.415	1740
290.466	1740
290.507	1692
290.584	1714
290.673	1757
290.734	1835
290.793	1842
290.856	1788
290.924	1830
290.955	1850
291.004	1931
291.095	2189
291.128	2292
291.229	2425
291.374	1666
291.398	1462
291.428	1428
291.432	1362
291.461	1158
291.545	629
291.642	268
291.695	146
291.756	255
291.794	315
291.860	375
291.920	350
292.063	185
292.110	109
292.137	39
292.147	-20
292.164	-83
292.217	-179
292.266	-225
292.325	-250
292.331	-289
292.337	-296
292.423	-357
292.508	-413
292.568	-439
292.642	-415
292.686	-403
292.778	-342
292.805	-306
292.837	-292
292.908	-205
292.931	-172
292.960	-155
293.028	43
293.076	154
293.255	800
293.376	978
293.406	1005
293.437	1109
293.499	1235
293.614	1297
293.676	1194
293.735	1223
293.794	1364
293.827	1470
293.925	1633
293.976	1725
294.034	1860
294.068	1880
294.099	1938
294.154	1896
294.454	1782
294.459	1778
294.518	1730
294.641	1723
294.667	1727
294.724	1771
294.729	1821
294.796	1982
294.861	2039
294.910	2106
294.959	2044
295.114	1577
295.175	1576
295.270	1780
295.299	1832
295.328	1848
295.384	2089
295.452	2057
295.575	1849
295.660	1505
295.729	1327
295.752	1256
295.835	932
295.954	508
296.078	257
296.106	210
296.168	254
296.199	282
296.255	72
296.378	-161
296.419	-212
296.494	-333
296.556	-345
296.617	-431
296.676	-487
296.737	-452
296.827	-211
296.892	-59
296.946	81
297.034	370
297.143	1148
297.220	1673
297.249	1840
297.307	1874
297.334	1920
297.489	1390
297.550	1316
297.695	1267
297.759	1578
297.845	1996
297.877	2016
297.969	2011
298.085	1790
298.179	1757
298.270	2007
298.384	2154
298.474	1868
298.534	1638
298.594	1440
298.625	1220
298.658	1170
298.746	809
298.774	744
298.806	698
298.838	527
298.899	207
298.954	119
299.079	76
299.137	30
299.168	-8
299.170	-21
299.346	-212
299.349	-215
299.378	-276
299.439	-449
299.524	-446
299.586	-225
299.656	175
299.735	742
299.767	871
299.800	960
299.915	1060
299.979	1018
300.060	1023
300.071	1058
300.128	1154
300.214	1382
300.275	1373
300.364	1275
300.458	1328
300.516	1381
300.557	1395
300.637	1424
300.727	1325
300.822	1252
300.880	1190
300.934	922
300.995	787
301.055	615
301.087	501
301.158	491
301.180	426
301.327	370
301.414	364
301.423	364
301.566	256
301.625	303
301.697	451
301.745	610
301.807	771
301.902	833
301.957	966
301.992	1070
302.077	1304
302.135	1358
302.197	1493
302.317	1582
302.377	1623
302.404	1656
302.410	1696
302.535	1917
302.644	2067
302.679	1975
302.779	1758
302.800	1772
302.833	1870
302.959	1978
302.990	1951
303.189	1885
303.222	1996
303.277	2097
303.290	2151
303.370	2366
303.447	2364
303.649	2412
303.743	2377
303.750	2425
303.856	2439
304.000	2463
304.019	2370
304.051	2166
304.111	2368
304.128	2497
304.162	2521
304.184	2578
304.276	2747
304.286	2695
304.305	2679
304.357	2817
304.522	2907
304.532	2884
304.543	2748
304.665	2391
304.781	2210
304.782	2109
304.819	1706
305.019	1457
305.060	1183
305.063	1083
305.064	1014
305.110	969
305.140	935
305.198	1100
305.228	1149
305.290	1226
305.320	1383
305.385	1609
305.437	1535
305.495	1431
305.647	463
305.716	303
305.845	58
305.946	-254
305.983	-335
306.048	-123
306.068	57
306.107	71
306.165	29
306.189	-119
306.281	-324
306.380	-693
306.432	-748
306.485	-725
306.545	-535
306.641	-253
306.725	153
306.817	922
306.876	1093
306.907	1278
306.959	1384
307.094	1463
307.153	1490
307.177	1451
307.234	1358
307.341	1203
307.394	1238
307.456	1319
307.504	1415
307.536	1537
307.569	1619
307.661	1825
307.778	1869
307.868	1794
307.920	1755
307.944	1808
307.989	1897
308.175	2006
308.230	1896
308.257	1848
308.362	1737
308.469	1661
308.527	1671
308.590	1583
308.648	1502
308.680	1473
308.769	1423
308.828	1394
308.858	1368
308.949	1368
308.976	1371
309.008	1381
309.069	1331
309.185	962
309.224	933
309.224	933
309.278	856
309.394	932
309.456	1035
309.517	1086
309.575	1108
309.645	1096
309.726	1178
309.797	1107
309.848	1056
310.027	1174
310.057	1178
310.058	1178
310.087	1217
310.235	1314
310.296	1305
310.326	1283
310.385	1307
310.459	1364
310.506	1586
310.568	1711
310.627	1661
310.693	1696
310.748	1890
310.813	2093
310.878	2096
310.930	2012
311.014	1978
311.134	1846
311.135	1846
311.196	1796
311.256	1746
311.407	1899
311.470	2065
311.555	2242
311.556	2271
311.585	2304
311.674	2169
311.734	2153
311.827	1924
311.919	1846
311.980	1847
312.035	1907
312.098	1799
312.129	1738
312.164	1728
312.215	1736
312.219	1739
312.305	1663
312.308	1641
312.457	1375
312.516	1253
312.547	1253
312.606	1129
312.667	1005
312.726	938
312.764	883
312.847	764
312.945	530
312.975	435
313.087	329
313.147	304
313.206	264
313.237	228
313.366	396
313.371	467
313.414	473
313.476	322
313.565	132
313.648	67
313.684	-300
313.767	-575
313.805	-629
313.840	-657
313.900	-539
313.984	-155
314.046	122
314.081	406
314.164	659
314.226	610
314.258	534
314.379	521
314.501	705
314.654	1003
314.680	1102
314.685	1138
314.739	1125
314.740	1118
314.856	937
314.920	929
315.022	1081
315.071	1117
315.104	1139
315.164	1097
315.216	899
315.350	762
315.455	647
315.458	638
315.513	546
315.576	586
315.667	589
315.695	550
315.698	470
315.783	306
315.905	189
315.974	162
315.997	88
316.085	27
316.145	60
316.177	77
316.207	87
316.320	35
316.387	68
316.445	298
316.535	421
316.624	485
316.744	721
316.835	841
316.900	804
316.987	1052
317.080	1173
317.135	1196
317.195	1195
317.254	1208
317.344	1376
317.497	1397
317.560	1551
317.645	1626
317.676	1649
317.710	1755
317.858	1967
317.981	1868
318.010	1880
318.125	2007
318.228	2079
318.277	2160
318.318	2221
318.348	2256
318.413	2288
318.519	2203
318.571	2030
318.811	1951
318.827	1809
318.835	1815
318.858	1842
318.859	1838
318.971	1887
319.089	1480
319.153	1265
319.228	837
319.245	765
319.304	790
319.344	690
319.396	560
319.614	394
319.617	341
319.758	140
319.768	56
319.919	-31
320.236	-22
320.250	12
320.295	94
320.304	197
320.315	424
320.380	1740
320.410	1619
320.710	1571
320.718	1543
320.729	1501
320.739	1468
320.745	1479
320.860	1908
321.000	1798
321.017	1693
321.056	1604
321.107	1479
321.136	1310
321.196	1309
321.231	1315
321.309	1347
321.411	1181
321.462	1046
321.507	1019
321.608	1196
321.665	1219
321.725	1263
321.787	1295
321.828	1277
321.848	1287
321.904	1223
321.940	1241
322.056	1287
322.244	1338
322.331	1262
322.387	1210
322.447	1213
322.479	1243
322.508	1247
322.572	1260
322.654	1304
322.714	1304
322.804	1311
322.837	1327
322.955	1091
323.023	1036
323.076	1036
323.078	1126
323.080	1126
323.259	1047
323.315	996
323.377	944
323.470	886
323.555	847
323.615	883
323.675	954
323.767	959
323.898	924
323.920	1037
324.082	1077
324.187	1131
324.216	1116
324.245	1139
324.277	1237
324.368	1360
324.429	1346
324.494	1257
324.560	1225
324.608	1258
324.640	1276
324.726	1226
324.815	1223
324.884	1190
324.966	1177
324.993	1131
324.997	1137
325.056	1369
325.083	1407
325.090	1421
325.154	1421
325.355	1250
325.385	1240
325.417	1217
325.478	1200
325.539	1222
325.596	1207
325.720	1234
325.777	1260
325.868	1247
325.871	1245
325.984	1243
326.047	1211
326.108	1295
326.196	1342
326.225	1318
326.343	1143
326.380	1130
326.493	1064
326.673	1218
326.763	1191
326.885	1231
326.948	1224
327.004	1247
327.034	1127
327.094	1157
327.184	1217
327.244	1276
327.277	1279
327.399	1016
327.429	1170
327.529	1231
327.574	1334
327.664	1416
327.724	1499
327.785	1418
327.815	1360
327.995	1220
328.173	1190
328.206	1249
328.209	1249
328.279	1243
328.280	1235
328.293	1218
328.389	1116
328.584	1388
328.688	1192
328.759	1171
328.777	1176
328.835	1145
328.927	1099
329.079	1223
329.212	1189
329.372	1097
329.391	960
329.465	832
329.468	687
329.497	567
329.526	479
329.587	349
329.644	510
329.704	809
329.764	1015
329.856	1069
329.889	1040
329.923	967
329.976	823
330.065	695
330.132	657
330.317	654
330.516	1098
330.567	1204
330.633	1145
330.663	1061
330.705	1013
330.786	1008
330.815	1016
330.877	1001
330.973	1098
331.029	1106
331.177	909
331.205	787
331.267	741
331.332	763
331.475	936
331.507	919
331.535	958
331.595	1053
331.660	1109
331.716	1054
331.805	972
331.866	1044
331.927	990
331.985	955
332.048	806
332.078	785
332.107	798
332.194	961
332.224	1007
332.254	998
332.257	995
332.325	890
332.348	892
332.435	873
332.469	867
332.499	855
332.704	897
332.737	925
332.859	917
332.944	908
333.003	864
333.037	854
333.126	796
333.156	820
333.218	818
333.279	835
333.280	835
333.338	864
333.405	880
333.428	929
333.497	810
333.574	885
333.638	928
333.671	1029
333.758	1031
333.844	972
333.904	1027
334.094	1041
334.111	1028
334.131	1024
334.139	1021
334.151	1020
334.202	987
334.207	979
334.214	927
334.221	918
334.237	878
334.410	803
334.426	761
334.538	738
334.647	764
334.811	766
334.831	813
334.926	859
334.946	930
334.966	956
334.980	1016
335.026	1020
335.100	1116
335.108	1124
335.124	1085
335.205	1038
335.323	1048
335.353	1015
335.359	1031
335.398	1145
335.496	1170
335.549	1198
335.574	1161
335.598	1171
335.640	1187
335.978	1248
336.015	1225
336.022	1182
336.029	1111
336.047	1019
336.112	1108
336.121	1156
336.142	1208
336.190	1311
336.246	1370
336.419	1375
336.427	1404
336.438	1392
336.466	1312
336.525	1314
336.570	1305
336.581	1287
336.698	1150
336.769	1122
336.823	1159
336.980	1168
336.998	1285
337.013	1442
337.089	1504
337.175	1519
337.235	1550
337.356	1531
337.416	1503
337.448	1516
337.504	1468
337.624	1453
337.684	1466
337.785	1498
337.813	1442
337.937	1442
337.944	1454
338.014	1411
338.047	1437
338.157	1467
338.225	1448
338.290	1414
338.376	1324
338.434	1232
338.506	1250
338.585	1396
338.683	1388
338.794	1312
338.825	1299
338.928	1396
339.005	1407
339.066	1343
339.100	1271
339.156	1210
339.187	1179
339.246	1161
339.278	1142
339.308	1124
339.368	1096
339.426	1080
339.486	1134
339.531	1113
339.604	1209
339.695	1271
339.757	1328
339.814	1410
339.876	1399
339.936	1317
339.997	1056
339.998	1036
340.085	775
340.176	786
340.238	971
340.295	1121
340.328	1137
340.387	1215
340.459	1184
340.570	1250
340.598	1242
340.654	1121
340.656	1121
340.714	1061
340.955	751
341.014	710
341.060	652
341.109	591
341.115	580
341.273	691
341.293	821
341.304	847
341.325	813
341.384	799
341.494	900
341.618	662
341.765	812
341.858	1011
341.892	1001
341.944	934
342.083	775
342.097	772
342.245	771
342.278	789
342.342	877
342.397	884
342.457	932
342.532	1034
342.575	1134
342.666	1082
342.815	1206
342.828	1251
342.914	1314
343.026	1255
343.060	1167
343.088	1109
343.238	1176
343.303	1210
343.328	1218
343.414	1251
343.476	1137
343.535	1064
343.655	1061
343.775	1015
343.808	982
343.930	890
344.016	703
344.110	529
344.196	465
344.290	421
344.377	397
344.494	332
344.559	345
344.589	327
344.616	331
344.854	843
344.948	842
345.007	763
345.075	715
345.127	768
345.217	854
345.248	865
345.340	881
345.383	965
345.424	1065
345.489	1159
345.607	1096
345.665	1131
345.765	1113
345.877	1176
345.880	1185
345.934	1265
345.944	1266
345.997	1256
346.061	1276
346.116	1268
346.193	1221
346.243	1289
346.539	1134
346.626	938
346.717	894
346.780	921
346.899	902
347.010	921
347.027	923
347.139	749
347.224	691
347.286	681
347.290	679
347.318	664
347.348	666
347.434	702
347.497	682
347.528	687
347.614	602
347.770	662
347.800	689
347.928	580
348.005	663
348.191	855
348.247	797
348.396	1053
348.428	1108
348.516	1127
348.604	1146
348.699	1170
348.754	1234
348.797	1207
348.845	1200
348.906	1143
348.975	1151
349.054	992
349.086	955
349.116	960
349.177	906
349.206	907
349.273	810
349.305	775
349.330	732
349.355	694
349.385	672
349.389	663
349.504	836
349.544	825
349.624	899
349.660	922
349.687	950
349.744	1004
349.750	1008
349.834	866
349.896	792
349.930	716
350.024	675
350.104	662
350.169	705
350.457	938
350.468	1002
350.494	1005
350.528	977
350.586	942
350.617	834
350.677	755
350.735	698
350.796	699
350.901	546
350.948	586
351.009	659
351.196	794
351.221	737
351.275	657
351.337	671
351.395	718
351.516	796
351.577	889
351.668	889
351.759	931
351.846	889
351.876	793
351.942	776
351.968	822
352.030	868
352.115	849
352.240	822
352.295	844
352.298	857
352.417	901
352.535	875
352.570	938
352.630	918
352.765	844
352.805	884
352.955	812
352.989	809
353.065	859
353.136	841
353.194	840
353.299	772
353.360	748
353.404	800
353.476	913
353.586	921
353.660	952
353.734	965
353.738	984
353.794	1027
353.974	999
354.156	1124
354.218	1035
354.307	1038
354.368	1010
354.429	1012
354.493	975
354.545	987
354.577	983
354.605	967
354.755	877
354.815	878
354.848	918
354.886	929
354.968	988
354.999	955
355.064	935
355.117	1006
355.178	1044
355.204	1031
355.237	1062
355.264	1093
355.325	1137
355.417	1157
355.420	1127
355.505	1055
355.564	985
355.657	952
355.812	910
355.894	856
355.950	857
356.026	908
356.040	921
356.056	941
356.156	947
356.181	1042
356.203	1022
356.615	969
356.691	904
356.854	904
356.997	895
357.216	845
357.227	933
357.332	930
357.388	902
357.458	880
357.561	803
357.564	801
357.705	780
357.705	738
357.867	799
357.939	860
358.065	857
358.150	863
358.339	856
358.367	849
358.410	1000
358.424	985
358.431	897
358.440	862
358.446	880
358.452	913
358.465	929
358.478	965
358.483	948
358.519	1035
358.532	1060
358.549	1154
358.574	1145
358.580	1116
358.632	1111
358.654	1166
358.674	1150
358.693	1129
358.729	1094
358.752	1102
358.776	1109
358.838	1122
358.869	1135
358.900	1089
359.016	1206
359.137	1237
359.140	1242
359.224	1254
359.284	1270
359.319	1239
359.381	1270
359.435	1292
359.535	1340
359.827	1228
359.862	1242
359.967	1297
360.126	1273
360.222	1245
360.307	1208
360.335	1139
360.456	1037
360.579	1077
360.606	1069
360.636	1079
360.742	1025
361.009	1195
361.060	1174
361.486	1217
361.534	1287
361.597	1180
361.599	1179
361.630	1299
361.698	1286
361.745	1333
361.778	1230
361.836	989
361.905	1006
361.959	1088
361.988	1184
362.084	1249
362.135	1307
362.226	1363
362.386	1336
362.391	1362
362.436	1472
362.441	1490
362.496	1319
362.555	1135
362.626	1006
362.675	983
362.738	1014
362.779	1024
362.830	977
362.922	1043
363.006	1166
363.095	1422
363.195	1429
363.215	1429
363.246	1450
363.249	1458
363.277	1469
363.336	1663
363.339	1663
363.372	1694
363.455	1764
363.486	1758
363.569	1722
363.588	1675
363.644	1593
363.711	1502
364.017	1421
364.020	1432
364.112	1297
364.138	1192
364.196	637
364.211	461
364.299	482
364.398	1009
364.446	998
364.485	949
364.567	722
364.657	513
364.695	555
364.762	681
364.806	813
364.838	843
364.942	775
364.996	623
365.022	607
365.077	602
365.178	628
365.255	619
365.315	554
365.375	439
365.404	374
365.466	408
365.527	413
365.638	488
365.704	424
365.766	427
365.796	443
365.827	420
365.934	411
365.976	522
366.038	531
366.189	736
366.290	780
366.307	852
366.343	856
366.460	772
366.520	738
366.607	795
366.679	852
366.698	845
366.759	850
366.821	820
366.874	856
366.944	936
367.024	884
367.058	846
367.092	836
367.119	805
367.204	772
367.242	703
367.295	678
367.328	635
367.476	628
367.534	659
367.599	667
367.686	601
367.714	593
367.716	593
367.981	657
368.015	699
368.050	707
368.171	763
368.233	836
368.259	806
368.295	738
368.357	725
368.406	723
368.438	756
368.586	655
368.616	640
368.648	624
368.737	635
368.795	620
368.854	563
368.889	505
368.953	514
368.974	575
369.035	610
369.101	592
369.129	571
369.188	573
369.226	623
369.278	734
369.337	822
369.425	1013
369.486	1168
369.574	1209
369.635	1240
369.695	1242
369.725	1258
369.784	1265
369.826	1350
369.908	1450
369.964	1504
370.028	1489
370.150	1455
370.154	1478
370.162	1486
370.182	1497
370.236	1505
370.294	1505
370.326	1461
370.467	1398
370.504	1353
370.535	1318
370.686	1223
370.717	1207
370.806	1083
370.879	1126
370.955	1184
371.044	1175
371.134	1144
371.196	1133
371.256	997
371.332	841
371.378	984
371.409	1017
371.469	979
371.546	869
371.608	825
371.650	819
371.707	769
371.798	687
371.887	718
371.944	702
372.005	743
372.040	804
372.106	956
372.196	1074
372.220	1058
372.288	1045
372.365	1056
372.424	1069
372.433	1064
372.487	974
372.554	897
372.575	882
372.636	905
372.694	909
372.754	949
372.794	961
372.827	924
372.913	931
373.001	892
373.100	797
373.162	742
373.207	698
373.355	698
373.370	703
373.377	719
373.421	731
373.424	715
373.575	650
373.595	664
373.691	697
373.852	680
373.973	662
373.988	637
374.026	646
374.056	674
374.070	794
374.093	824
374.110	829
374.180	932
374.207	952
374.230	980
374.300	986
374.315	946
374.377	900
374.409	927
374.468	921
374.539	891
374.590	730
374.704	556
374.796	568
374.799	578
374.935	665
374.985	784
375.124	780
375.308	953
375.518	931
375.559	970
375.635	897
375.703	867
375.787	787
375.828	973
375.910	1351
375.939	1392
375.981	1369
376.055	1288
376.146	1209
376.206	1224
376.389	1106
376.420	1014
376.487	958
376.630	1317
376.830	1393
376.842	1448
376.855	1523
377.065	1565
377.083	1532
377.108	1498
377.155	1425
377.202	1327
377.290	1219
377.328	1158
377.351	1151
377.379	1161
377.435	1306
377.500	1360
377.585	1250
377.675	1243
377.778	1195
377.855	879
377.952	730
378.007	804
378.079	1044
378.096	1067
378.157	1138
378.280	1339
378.338	1343
378.339	1346
378.399	1339
378.436	1295
378.491	1207
378.562	1111
378.697	1117
378.726	1271
378.820	1321
378.911	1005
379.057	607
379.119	514
379.176	545
379.210	568
379.356	605
379.361	484
379.387	428
379.449	304
379.508	135
379.535	50
379.596	-156
379.676	-320
379.750	-448
379.838	-422
379.873	-387
379.955	-399
380.059	-501
380.110	-535
380.180	-520
380.257	-480
380.379	-464
380.436	-451
380.615	-502
380.678	-499
380.772	-480
380.828	-442
380.945	-433
381.124	-252
381.128	-244
381.228	-204
381.249	-184
381.277	-181
381.368	-111
381.435	-44
381.518	31
381.546	47
381.669	108
381.704	109
381.727	107
381.763	84
381.846	77
382.026	130
382.085	111
382.115	118
382.159	130
382.205	156
382.238	163
382.508	189
382.568	204
382.599	211
382.626	225
382.685	233
382.805	217
382.957	176
383.080	173
383.182	176
383.261	184
383.298	180
383.351	179
383.379	190
383.438	204
383.528	195
383.647	183
383.709	196
383.735	214
383.795	242
383.864	280
383.985	304
384.045	359
384.129	416
384.220	481
384.306	457
384.367	435
384.399	424
384.432	390
384.489	362
384.575	275
384.608	276
384.696	309
384.755	330
384.935	419
384.998	425
385.117	395
385.145	391
385.324	378
385.395	413
385.476	443
385.632	444
385.715	440
385.805	402
385.898	396
385.930	392
385.988	392
386.055	386
386.105	387
386.165	393
386.271	370
386.316	333
386.349	295
386.406	253
386.495	208
386.570	198
386.587	206
386.647	204
386.743	225
386.746	222
386.770	218
386.856	201
386.940	217
386.950	243
387.006	259
387.047	283
387.278	175
387.358	192
387.489	311
387.584	331
387.636	346
387.728	429
387.845	392
387.854	370
387.930	334
387.942	312
387.965	303
388.000	291
388.029	277
388.059	269
388.157	283
388.207	336
388.299	383
388.385	389
388.448	394
388.544	401
388.660	405
388.730	324
388.775	261
388.809	252
388.868	245
388.895	262
388.986	321
389.077	338
389.135	415
389.230	500
389.290	530
389.345	486
389.526	185
389.592	111
389.679	67
389.775	91
389.831	159
389.890	274
389.948	347
390.006	663
390.223	796
390.261	764
390.277	748
390.373	375
390.400	285
390.458	261
390.518	254
390.582	291
390.657	347
390.669	359
390.729	417
390.787	409
390.848	377
390.910	320
391.148	221
391.215	256
391.238	285
391.327	353
391.387	346
391.424	341
391.456	338
391.477	340
391.536	341
391.598	340
391.655	324
391.835	300
391.910	308
391.988	315
392.136	354
392.195	367
392.291	362
392.319	338
392.377	306
392.435	285
392.465	284
392.527	265
392.559	255
392.777	414
392.831	469
392.888	473
392.949	533
393.095	609
393.126	594
393.159	545
393.245	494
393.306	498
393.395	582
393.456	623
393.516	600
393.577	575
393.667	694
393.785	1207
393.992	1242
394.004	842
394.057	360
394.119	-35
394.298	-236
394.385	-120
394.477	-90
394.510	-91
394.565	-111
394.626	-106
394.663	-99
394.688	-94
394.715	-82
394.775	-93
394.813	-102
394.868	-110
394.926	-80
394.995	-53
395.064	-4
395.181	80
395.287	178
395.409	70
395.441	50
395.495	99
395.617	184
395.676	122
395.735	97
395.767	91
395.796	82
395.887	19
395.955	2
396.090	-118
396.128	-114
396.254	-113
396.400	-120
396.408	-118
396.433	-56
396.501	-1
396.503	120
396.660	292
396.663	268
396.730	208
396.759	114
396.819	35
396.877	-79
396.939	-78
396.985	-78
397.028	-75
397.061	-67
397.121	-71
397.179	-26
397.235	0
397.270	6
397.329	18
397.386	-26
397.418	-28
397.479	-14
397.538	-27
397.625	-58
397.686	-56
397.775	-33
397.837	-7
397.928	0
397.989	7
398.076	115
398.169	162
398.435	93
398.528	32
398.556	14
398.657	-13
398.679	-11
398.739	-9
398.776	-15
398.911	-93
398.985	-188
399.066	-257
399.070	-261
399.125	-262
399.216	-261
399.277	-255
399.308	-267
399.395	-299
399.430	-279
399.515	-212
399.585	-154
399.636	-161
399.670	-153
399.728	-192
399.876	-219
399.938	-220
399.966	-209
400.088	-188
400.207	-255
400.268	-284
400.415	-286
400.464	-286
400.507	-308
400.579	-338
400.629	-333
400.689	-269
400.899	-252
400.931	-246
401.016	-159
401.106	-119
401.137	-125
401.162	-125
401.376	-4
401.474	60
401.556	-10
401.618	-91
401.678	-109
401.681	-110
401.708	-112
401.750	-133
401.855	-145
402.006	-59
402.125	36
402.188	104
402.219	100
402.275	38
402.348	-41
402.426	-133
402.486	-153
402.550	-140
402.639	-81
402.725	-58
402.828	-33
402.851	30
402.941	86
402.998	74
403.028	45
403.210	-63
403.268	-120
403.327	-119
403.358	-110
403.509	-75
403.596	-70
403.688	-85
403.748	-121
403.838	-162
403.868	-171
403.897	-177
403.985	-204
403.988	-202
404.075	-218
404.076	-218
404.105	-212
404.165	-209
404.264	-267
404.317	-286
404.376	-322
404.451	-343
404.505	-351
404.646	-161
404.705	-105
404.735	-86
404.779	-57
404.912	-116
404.938	-136
404.980	-142
405.018	-118
405.131	-56
405.199	-80
405.247	-132
405.276	-115
405.430	-2
405.486	-39
405.552	-25
405.666	86
405.727	170
405.787	230
405.845	235
405.916	190
406.029	129
406.121	2
406.177	8
406.208	25
406.302	9
406.328	-22
406.443	-41
406.449	-78
406.471	-110
406.495	-95
406.568	-53
406.661	-105
406.687	-132
406.719	-145
406.748	-184
406.930	-299
406.997	-263
407.008	-252
407.025	-240
407.081	-238
407.155	-213
407.348	-217
407.385	-220
407.426	-197
407.564	-69
407.622	-74
407.650	-74
407.679	-97
407.771	-246
407.829	-224
407.860	-164
407.950	-134
407.987	-72
407.991	-72
408.076	-82
408.101	-68
408.133	-71
408.204	23
408.306	21
408.366	4
408.398	-40
408.580	-189
408.638	-238
408.667	-227
408.699	-190
408.758	-176
408.824	-134
408.875	-114
408.880	-109
408.910	-93
408.997	-62
409.028	-61
409.061	-45
409.147	15
409.235	-128
409.325	-146
409.355	-133
409.398	-122
409.450	-118
409.548	-177
409.867	-81
409.872	-74
409.903	-132
409.962	-244
410.018	-189
410.079	-112
410.136	-183
410.228	-342
410.264	-423
410.347	-474
410.435	-436
410.497	-315
410.557	-325
410.645	-380
410.717	-395
410.767	-355
410.798	-267
410.976	-327
411.037	-324
411.275	-390
411.337	-372
411.368	-350
411.487	-410
411.609	-339
411.697	-336
411.821	-321
411.879	-322
411.969	-303
412.119	-489
412.178	-495
412.235	-389
412.385	-266
412.451	-243
412.505	-208
412.578	-184
412.598	-227
412.641	-247
412.717	-347
412.936	-150
412.959	-155
413.006	-191
413.020	-186
413.050	-174
413.145	-198
413.198	-261
413.257	-295
413.311	-401
413.375	-439
413.466	-422
413.500	-413
413.592	-375
413.647	-368
413.711	-354
413.768	-300
413.829	-295
413.950	-259
414.037	-265
414.069	-247
414.155	-229
414.277	-208
414.309	-217
414.338	-237
414.519	-137
414.547	-182
414.607	-254
414.667	-229
414.755	-165
414.785	-142
414.847	-135
414.902	-129
414.936	-145
415.027	-114
415.149	-91
415.208	-229
415.297	-288
415.339	-255
415.511	-224
415.539	-297
415.570	-317
415.646	-317
415.807	-339
415.870	-307
415.968	-255
416.020	-201
416.049	-172
416.109	-165
416.166	-253
416.200	-279
416.257	-244
416.357	-220
416.445	-257
416.466	-257
416.587	-240
416.622	-262
416.739	-285
416.775	-284
416.836	-249
416.917	-265
416.947	-264
416.953	-285
417.065	-284
417.157	-281
417.297	-300
417.372	-325
417.383	-325
417.385	-324
417.417	-322
417.488	-338
417.547	-333
417.606	-296
417.727	-213
417.763	-200
417.825	-197
417.931	-109
417.968	-63
418.035	15
418.035	17
418.187	12
418.188	12
418.215	-21
418.327	-44
418.506	-128
418.551	-163
418.596	-129
418.655	-93
418.720	-56
418.805	-42
418.870	-45
418.987	-67
419.197	-143
419.260	-91
419.359	-155
419.381	-171
419.411	-193
419.496	-129
419.556	-160
419.616	-180
419.677	-190
419.739	-176
419.770	-145
419.802	-143
419.857	-160
419.951	-206
420.187	-185
420.245	-197
420.250	-197
420.341	-251
420.370	-236
420.398	-199
420.503	-248
420.553	-256
420.567	-234
420.636	-212
420.666	-213
420.756	-261
420.791	-380
420.883	-381
420.937	-367
420.999	-295
421.056	-295
421.125	-276
421.207	-297
421.267	-205
421.285	-195
421.297	-186
421.326	-165
421.385	-243
421.422	-248
421.560	-175
421.573	-163
421.597	-154
421.630	-162
421.713	-271
421.782	-396
421.870	-342
421.927	-350
421.989	-358
422.060	-341
422.139	-296
422.170	-289
422.264	-348
422.289	-388
422.349	-353
422.411	-237
422.467	-228
422.497	-234
422.589	-317
422.647	-292
422.709	-209
422.857	-304
422.928	-380
423.038	-366
423.066	-329
423.100	-333
423.162	-323
423.219	-303
423.245	-309
423.277	-307
423.369	-328
423.399	-332
423.429	-366
423.487	-366
423.546	-320
423.580	-315
423.668	-279
423.849	-249
423.937	-344
424.115	-273
424.236	-266
424.266	-259
424.296	-258
424.386	-254
424.426	-229
424.577	-148
424.582	-139
424.813	-37
424.896	-68
424.935	-72
425.057	-121
425.116	-94
425.169	-52
425.169	-52
425.199	-54
425.230	-53
425.286	-98
425.319	-80
425.349	-76
425.406	-103
425.498	-104
425.558	-63
425.621	-45
425.677	-51
425.796	-73
425.827	-65
425.920	-61
425.980	-148
426.138	-179
426.186	-164
426.367	-228
426.400	-287
426.467	-282
426.548	-252
426.578	-277
426.701	-361
426.726	-367
426.786	-410
426.879	-392
426.968	-363
427.039	-444
427.119	-229
427.177	-210
427.241	-144
427.300	-200
427.373	-189
427.418	-206
427.477	-223
427.509	-244
427.596	-315
427.630	-320
427.716	-357
427.751	-356
427.837	-336
427.933	-228
427.959	-221
427.990	-210
428.020	-182
428.077	-187
428.127	-177
428.142	-185
428.197	-163
428.349	-106
428.453	-127
428.502	-131
428.591	-82
428.623	-102
428.738	-126
428.768	-134
428.799	-146
428.825	-162
428.891	-222
428.949	-222
429.009	-248
429.096	-264
429.158	-268
429.218	-210
429.248	-184
429.308	-138
429.396	-174
429.456	-157
429.516	-190
429.608	-203
429.700	-261
429.787	-290
429.997	-346
430.090	-298
430.176	-242
430.238	-259
430.244	-263
430.302	-267
430.536	-290
430.597	-291
430.686	-332
430.748	-345
430.752	-345
430.837	-352
430.896	-303
430.988	-268
430.990	-268
431.256	-149
431.291	-167
431.361	-145
431.410	-132
431.440	-132
431.497	-146
431.529	-168
431.586	-170
431.620	-154
431.678	-99
431.739	-91
431.859	-130
431.919	-127
431.979	-124
432.036	-149
432.076	-165
432.130	-191
432.196	-159
432.250	-145
432.310	-130
432.396	-200
432.432	-254
432.550	-312
432.608	-332
432.657	-337
432.672	-350
432.727	-376
432.848	-363
432.877	-397
432.916	-414
432.996	-397
433.116	-336
433.178	-342
433.248	-392
433.302	-332
433.337	-299
433.447	-267
433.480	-263
433.509	-256
433.598	-238
433.669	-196
433.752	-225
433.840	-305
433.913	-303
433.957	-258
434.048	-319
434.108	-311
434.230	-279
434.303	-273
434.333	-266
434.378	-282
434.496	-308
434.600	-360
434.648	-358
434.682	-355
434.770	-367
434.830	-426
434.985	-347
435.047	-351
435.082	-387
435.100	-382
435.248	-264
435.276	-181
435.313	-191
435.398	-332
435.429	-355
435.584	-263
435.612	-249
435.696	-267
435.761	-254
435.789	-247
435.882	-151
436.112	-100
436.129	-110
436.259	-144
436.585	-82
436.598	-94
436.602	-173
436.608	-210
436.611	-220
436.635	-151
436.764	-307
436.785	-315
436.839	-227
437.059	-188
437.110	-145
437.274	-151
437.279	-153
437.322	-206
437.348	-208
437.379	-197
437.439	-183
437.573	-161
437.591	-140
437.594	-126
437.635	-151
437.690	-172
437.713	-171
437.774	-198
437.911	-236
437.978	-271
438.012	-248
438.097	-208
438.163	-203
438.218	-146
438.282	-140
438.369	-158
438.430	-195
438.491	-243
438.548	-281
438.636	-295
438.671	-300
438.700	-307
438.726	-301
438.862	-300
439.003	-295
439.041	-249
439.111	-242
439.114	-229
439.118	-225
439.207	-224
439.241	-211
439.297	-105
439.359	-112
439.465	-151
439.508	-292
439.632	-214
439.670	-173
439.824	-315
439.889	-316
439.908	-316
439.960	-307
440.039	-317
440.078	-334
440.176	-288
440.198	-278
440.311	-291
440.376	-387
440.440	-371
440.485	-315
440.528	-304
440.558	-318
440.562	-320
440.650	-355
440.736	-328
440.798	-347
440.831	-356
440.959	-384
441.008	-303
441.096	-230
441.160	-214
441.187	-222
441.249	-213
441.278	-230
441.280	-232
441.336	-207
441.376	-199
441.429	-197
441.459	-208
441.521	-239
441.567	-220
441.583	-216
441.609	-205
441.639	-202
441.668	-211
441.698	-217
441.833	-210
441.967	-194
442.045	-203
442.088	-191
442.092	-200
442.126	-215
442.177	-252
442.297	-250
442.508	-152
442.565	-138
442.597	-172
442.666	-214
442.765	-219
442.777	-205
442.962	-146
443.198	-70
443.347	-252
443.406	-269
443.469	-281
443.527	-236
443.712	-370
443.801	-413
443.830	-432
443.978	-395
444.129	-492
444.166	-473
444.192	-435
444.309	-174
444.398	-108
444.432	-47
444.459	-52
444.578	-193
444.696	-236
444.758	-310
444.786	-297
444.849	-228
444.937	-159
444.996	-164
445.029	-154
445.088	-154
445.176	-255
445.238	-299
445.268	-332
445.327	-323
445.388	-307
445.450	-242
445.567	-342
445.733	-330
445.860	-302
445.885	-335
445.902	-318
445.958	-284
446.058	-257
446.081	-287
446.240	-394
446.293	-401
446.318	-407
446.385	-376
446.406	-375
446.436	-344
446.466	-340
446.528	-337
446.647	-338
446.769	-414
446.895	-380
446.980	-376
447.006	-395
447.044	-389
447.059	-384
447.099	-383
447.130	-370
447.166	-366
447.265	-458
447.312	-448
447.412	-455
447.491	-492
447.532	-484
447.581	-464
447.638	-393
447.789	-527
447.822	-506
447.846	-481
447.855	-481
447.876	-472
447.967	-463
448.026	-428
448.074	-415
448.165	-390
448.207	-411
448.240	-428
448.302	-371
448.482	-289
448.542	-266
448.598	-252
448.686	-149
448.776	-90
448.874	-66
448.930	-135
449.076	-155
449.166	-149
449.201	-137
449.232	-120
449.349	-109
449.419	-275
449.501	-454
449.568	-490
449.616	-487
449.621	-487
449.718	-460
449.797	-517
449.923	-407
450.049	-299
450.145	-292
450.158	-240
450.257	-85
450.309	-230
450.311	-237
450.430	-363
450.523	-302
450.616	-301
450.758	-295
450.849	-336
450.940	-380
450.968	-380
451.005	-438
451.060	-412
451.256	-311
451.289	-315
451.388	-323
451.470	-358
451.540	-375
451.657	-224
451.721	-212
451.781	-236
451.869	-182
451.996	-178
452.021	-164
452.082	-196
452.150	-202
452.198	-259
452.269	-276
452.319	-247
452.349	-205
452.381	-198
452.409	-166
452.472	-172
452.707	-203
452.723	-208
452.797	-205
452.833	-265
452.946	-264
453.068	-314
453.126	-342
453.194	-367
453.276	-422
453.338	-389
453.373	-385
453.430	-353
453.499	-420
453.716	-348
453.735	-394
453.789	-403
453.818	-459
453.887	-384
453.970	-386
454.056	-387
454.121	-385
454.180	-278
454.298	-271
454.395	-319
454.462	-341
454.510	-322
454.659	-338
454.729	-341
454.748	-343
454.777	-319
454.781	-327
454.874	-335
454.900	-381
454.932	-391
454.990	-388
455.051	-362
455.168	-328
455.199	-317
455.271	-286
455.347	-257
455.470	-258
455.500	-200
455.556	-105
455.649	-341
455.797	-331
455.918	-240
455.954	-240
455.979	-296
456.008	-316
456.097	-230
456.156	-132
456.164	-136
456.218	-149
456.307	-192
456.337	-188
456.368	-140
456.457	-267
456.497	-274
456.576	-189
456.713	-196
456.729	-262
456.848	-264
457.187	-64
457.248	-27
457.324	-61
457.393	-109
457.513	-85
457.520	-77
457.817	-115
457.827	-111
457.956	-146
457.971	-109
457.973	-100
458.021	-209
458.046	-235
458.073	-263
458.091	-289
458.130	-294
458.170	-246
458.244	-230
458.317	-266
458.354	-283
458.412	-297
458.477	-330
458.507	-358
458.634	-251
458.652	-207
458.681	-212
458.711	-282
458.771	-268
458.832	-240
458.928	-264
459.008	-312
459.120	-283
459.143	-291
459.202	-305
459.218	-336
459.308	-354
459.503	-279
459.520	-351
459.557	-355
459.608	-335
459.611	-330
459.671	-210
459.789	-202
459.956	-505
459.964	-510
460.009	-399
460.066	-301
460.118	-358
460.207	-426
460.215	-434
460.330	-364
460.434	-328
460.473	-322
460.602	-286
460.624	-255
460.749	-338
460.826	-294
460.869	-339
460.929	-351
461.018	-250
461.077	-216
461.143	-275
461.231	-296
461.261	-264
461.319	-216
461.431	-278
461.482	-334
461.632	-286
461.651	-278
461.681	-304
461.819	-277
461.858	-307
461.973	-309
461.975	-306
462.156	-385
462.221	-277
462.309	-139
462.342	-214
462.402	-216
462.490	-231
462.669	-235
462.730	-285
462.832	-283
462.838	-235
462.852	-196
462.940	-195
463.058	-368
463.117	-396
463.126	-363
463.171	-331
463.173	-320
463.212	-284
463.241	-315
463.318	-305
463.357	-426
463.418	-425
463.477	-406
463.539	-394
463.630	-399
463.687	-410
463.811	-313
463.849	-257
463.902	-236
463.962	-231
464.076	-282
464.085	-277
464.154	-281
464.289	-292
464.354	-310
464.409	-313
464.497	-319
464.531	-318
464.619	-322
464.622	-314
464.712	-288
464.771	-300
464.830	-294
464.906	-262
464.960	-264
465.038	-320
465.098	-310
465.159	-217
465.188	-173
465.281	-171
465.311	-199
465.368	-243
465.463	-198
465.550	-237
465.608	-295
465.663	-307
465.760	-266
465.914	-380
465.969	-383
466.026	-338
466.179	-401
466.270	-326
466.328	-313
466.398	-201
466.477	-119
466.543	-41
466.598	-39
466.664	-23
466.807	-89
466.869	-118
466.957	-140
467.033	-136
467.078	-182
467.111	-196
467.181	-221
467.201	-267
467.303	-342
467.348	-377
467.426	-381
467.484	-348
467.500	-314
467.657	-205
467.858	-180
467.893	-171
467.959	-153
468.006	-182
468.076	-209
468.135	-304
468.199	-350
468.220	-383
468.284	-367
468.317	-337
468.391	-323
468.430	-254
468.488	-176
468.577	-165
468.669	-235
468.729	-291
468.799	-332
468.878	-313
468.970	-293
468.977	-272
469.034	-269
469.196	-311
469.279	-303
469.329	-351
469.431	-370
469.479	-297
469.659	-239
469.808	-267
469.840	-282
469.908	-321
469.988	-390
470.047	-291
470.080	-243
470.196	-216
470.381	-348
470.388	-366
470.410	-339
470.442	-270
470.469	-278
470.527	-316
470.658	-319
470.752	-222
470.798	-202
470.857	-245
470.917	-227
470.978	-238
471.040	-263
471.100	-265
471.219	-390
471.249	-384
471.399	-299
471.401	-303
471.433	-293
471.487	-285
471.518	-288
471.638	-134
471.728	-144
471.789	-126
471.819	-164
471.847	-182
471.933	-197
471.971	-192
472.029	-203
472.065	-200
472.118	-207
472.180	-260
472.241	-255
472.297	-252
472.384	-236
472.395	-233
472.482	-206
472.540	-193
472.612	-192
472.631	-176
472.688	-192
472.761	-191
472.810	-204
472.957	-163
472.996	-170
473.018	-191
473.107	-264
473.178	-218
473.199	-213
473.442	-206
473.527	-160
473.639	-198
473.643	-196
473.656	-230
473.709	-219
473.829	-33
473.892	-56
473.961	-64
474.040	-48
474.078	-13
474.130	-63
474.187	-69
474.359	-202
474.369	-178
474.430	-139
474.496	-124
474.517	-123
474.547	-117
474.608	-125
474.612	-124
474.667	-115
474.758	-98
474.937	-171
474.997	-168
475.032	-157
475.060	-158
475.093	-164
475.177	-180
475.270	-157
475.331	-166
475.406	-214
475.450	-400
475.511	-420
475.539	-431
475.597	-506
475.717	-587
475.754	-600
475.828	-607
475.870	-616
475.954	-623
476.028	-594
476.064	-610
476.384	-375
476.398	-224
476.465	-232
476.489	-413
476.519	-444
476.584	-430
476.661	-410
476.759	-403
476.802	-263
476.958	-229
477.010	-231
477.018	-179
477.053	-123
477.233	-135
477.245	-148
477.258	-160
477.284	-197
477.323	-213
477.384	-236
477.460	-130
477.716	-62
477.970	-102
478.022	-115
478.219	-182
478.229	-167
478.234	-143
478.267	-117
478.271	-67
478.272	-55
478.393	-60
478.400	-32
478.406	-31
478.483	-34
478.615	-76
478.629	-73
478.641	-81
478.662	-91
478.671	-86
478.682	-93
478.691	-112
478.700	-92
478.761	-29
478.813	-20
478.839	-34
478.875	-59
478.968	-109
478.986	-170
479.220	-206
479.560	-228
479.606	-263
479.614	-235
479.638	-223
479.651	-249
479.654	-277
479.699	-211
479.740	-344
479.799	-361
479.872	-370
479.951	-285
479.984	-234
480.074	-250
480.100	-290
480.131	-296
480.191	-242
480.257	-243
480.286	-215
480.341	-320
480.453	-248
480.492	-279
480.642	-288
480.790	-234
480.819	-276
480.981	-280
481.002	-281
481.060	-316
481.148	-267
481.148	-262
481.214	-241
481.285	-259
481.364	-261
481.409	-259
481.611	-266
481.723	-359
481.737	-428
481.752	-431
481.842	-406
481.923	-393
481.974	-385
482.019	-394
482.117	-346
482.192	-379
482.229	-376
482.288	-338
482.347	-359
482.407	-392
482.499	-363
482.529	-365
482.569	-402
482.707	-468
482.773	-444
482.857	-450
482.951	-490
483.008	-492
483.098	-395
483.252	-350
483.283	-287
483.371	-204
483.479	-147
483.547	7
483.585	48
483.640	83
483.698	-20
483.796	-59
483.958	19
483.999	-27
484.091	-7
484.207	13
484.274	-17
484.328	20
484.336	22
484.418	80
484.453	61
484.510	226
484.585	227
484.657	90
484.692	75
484.781	2
484.826	-55
484.903	-223
484.970	-289
485.051	-293
485.157	-454
485.201	-495
485.230	-574
485.319	-575
485.410	-572
485.451	-567
485.531	-528
485.621	-521
485.707	-539
485.768	-529
485.840	-568
485.961	-552
486.019	-499
486.040	-453
486.101	-453
486.189	-482
486.228	-464
486.232	-460
486.255	-428
486.338	-362
486.401	-352
486.441	-385
486.519	-455
486.580	-467
486.637	-440
486.645	-436
486.705	-438
486.727	-432
486.761	-381
486.791	-336
486.942	-259
487.068	-281
487.120	-308
487.178	-318
487.269	-271
487.327	-252
487.388	-257
487.452	-247
487.458	-245
487.481	-220
487.571	-184
487.632	-172
487.719	-108
487.898	-148
487.992	-127
488.187	-91
488.234	-138
488.263	-146
488.332	-207
488.380	-208
488.476	-200
488.506	-247
488.559	-255
488.632	-276
488.678	-222
488.739	-200
488.801	-142
488.861	-121
488.980	-93
489.097	-88
489.221	-206
489.281	-300
489.310	-330
489.458	-448
489.490	-446
489.531	-451
489.579	-410
489.661	-395
489.703	-405
489.760	-412
489.802	-431
489.850	-486
489.901	-484
489.913	-446
489.956	-441
489.986	-371
490.024	-196
490.061	-143
490.153	-163
490.208	-184
490.273	-174
490.327	-172
490.335	-176
490.407	-183
490.450	-196
490.515	-198
490.516	-198
490.569	-170
490.628	-150
490.632	-149
490.688	-161
490.754	-196
490.807	-201
490.928	-185
490.960	-162
490.995	-163
491.021	-128
491.107	-109
491.169	-134
491.203	-147
491.321	-184
491.349	-176
491.382	-183
491.418	-185
491.469	-206
491.557	-185
491.587	-180
491.594	-180
491.629	-175
491.679	-201
491.738	-173
491.770	-152
491.809	-146
491.827	-95
491.920	-55
491.978	-46
492.009	-13
492.041	6
492.070	9
492.161	-6
492.280	-31
492.282	-38
492.457	-216
492.610	-264
492.664	-272
492.699	-275
492.701	-257
492.729	-248
492.798	-236
492.910	-241
492.970	-282
493.030	-266
493.104	-240
493.109	-243
493.153	-211
493.237	-184
493.272	-171
493.398	-187
493.539	-184
493.602	-163
493.808	-176
493.873	-213
493.957	-238
494.019	-251
494.051	-243
494.111	-271
494.257	-292
494.293	-305
494.409	-314
494.501	-262
494.566	-274
494.651	-296
494.709	-301
494.761	-269
494.832	-202
494.929	-220
494.985	-189
495.114	-243
495.154	-284
495.170	-304
495.220	-331
495.285	-328
495.375	-350
495.431	-412
495.463	-412
495.491	-411
495.575	-435
495.605	-443
495.973	-404
496.004	-393
496.013	-408
496.041	-402
496.155	-280
496.169	-259
496.192	-262
496.313	-307
496.333	-303
496.347	-292
496.382	-304
496.452	-344
496.483	-352
496.540	-313
496.611	-289
496.667	-250
496.692	-225
496.809	-219
496.847	-234
496.874	-222
496.970	-229
497.066	-255
497.173	-154
497.231	-201
497.351	-187
497.378	-193
497.414	-193
497.473	-169
497.547	-197
497.602	-169
497.681	-213
497.814	-159
497.893	-135
498.128	-187
498.140	-221
498.193	-266
498.229	-199
498.370	-113
498.431	-176
498.490	-130
498.584	-108
498.680	-121
498.775	-171
498.813	-179
498.868	-154
498.974	-130
499.058	-213
499.152	-149
499.217	-98
499.315	-142
499.360	-175
499.366	-181
499.390	-208
499.466	-186
499.516	-224
499.598	-193
499.633	-210
499.687	-223
499.718	-230
499.750	-246
499.852	-256
499.900	-293
500.020	-367
500.049	-391
500.052	-388
500.111	-381
500.173	-338
500.180	-357
500.261	-410
500.382	-329
500.412	-332
500.529	-361
500.596	-337
500.657	-326
500.682	-345
500.744	-383
500.800	-406
500.911	-426
500.937	-398
500.991	-344
501.037	-350
501.070	-348
501.101	-376
501.104	-363
501.161	-339
501.191	-288
501.278	-271
501.341	-267
501.491	-334
501.524	-345
501.607	-334
501.654	-332
501.700	-357
501.851	-376
501.880	-347
501.972	-298
502.058	-274
502.120	-282
502.207	-343
502.298	-302
502.389	-223
502.450	-205
502.477	-206
502.552	-209
502.627	-138
502.689	-147
502.765	-214
502.853	-276
502.856	-269
502.930	-214
502.935	-208
502.971	-173
503.171	-207
503.198	-199
503.266	-187
503.289	-195
503.320	-251
503.353	-253
503.410	-266
503.471	-277
503.558	-329
503.593	-389
503.682	-341
503.797	-351
503.890	-365
503.922	-362
504.041	-230
504.158	-297
504.248	-334
504.372	-280
504.489	-180
504.520	-184
504.701	-162
504.728	-150
504.769	-115
504.821	-41
504.882	2
504.918	14
504.919	21
504.997	10
505.094	19
505.105	10
505.124	11
505.254	-22
505.395	-1
505.403	18
505.424	32
505.427	31
505.512	-42
505.583	-11
505.668	-8
505.728	-75
505.810	-32
505.874	-30
505.930	-34
506.003	-117
506.070	-91
506.139	-38
506.201	-35
506.335	-40
506.353	8
506.409	-23
506.440	-38
506.530	-137
506.589	-152
506.653	-222
506.742	-291
506.858	-271
506.890	-271
506.919	-273
507.010	-267
507.102	-264
507.155	-276
507.209	-257
507.259	-278
507.359	-337
507.398	-344
507.458	-325
507.611	-375
507.698	-354
507.759	-346
507.821	-383
507.851	-466
507.915	-472
507.932	-453
507.999	-423
508.089	-374
508.207	-428
508.272	-448
508.358	-412
508.453	-334
508.510	-334
508.569	-323
508.628	-287
508.748	-260
508.842	-210
508.857	-242
509.260	-184
509.290	-160
509.355	-145
509.500	-200
509.531	-226
509.591	-202
509.652	-182
509.709	-165
509.770	-123
509.852	-103
509.931	-61
509.933	-60
510.043	-49
510.101	-47
510.160	-82
510.187	-83
510.222	-92
510.252	-92
510.290	-84
510.401	-88
510.431	-86
510.466	-69
510.520	-27
510.582	34
510.669	92
510.731	43
510.880	21
511.028	-65
511.130	-69
511.150	-45
511.208	-25
511.270	9
511.419	-24
511.482	-81
511.572	-84
511.632	-48
511.690	-11
511.749	54
511.779	98
511.811	103
511.881	133
511.912	146
511.994	-9
512.139	-281
512.259	-298
512.304	-287
512.327	-229
512.559	-34
512.708	-44
512.800	-114
512.893	-140
513.041	-209
513.180	-200
513.415	-193
513.535	-225
513.594	-206
513.784	-85
513.824	10
513.832	33
513.844	23
513.859	-55
513.882	-96
513.976	-178
513.980	-294
514.061	-410
514.108	-403
514.126	-403
514.232	-352
514.242	-323
514.271	-295
514.302	-267
514.416	-188
514.431	-145
514.540	-89
514.619	-48
514.641	-49
514.694	-59
514.754	-67
514.810	-64
514.844	-49
514.905	-4
514.936	58
514.993	109
515.081	133
515.115	142
515.179	60
515.274	-96
515.320	-262
515.438	-279
515.528	-281
515.537	-280
515.598	-294
515.681	-233
515.773	-190
515.806	-201
515.860	-266
515.929	-299
515.930	-305
515.981	-341
516.009	-359
516.078	-353
516.097	-352
516.111	-365
516.157	-341
516.246	-323
516.280	-234
516.338	-106
516.412	-36
516.517	-94
516.699	-182
516.708	-224
516.747	-286
516.763	-290
516.840	-288
516.843	-287
516.900	-261
516.941	-191
517.002	-124
517.088	10
517.174	40
517.210	34
517.297	-42
517.334	-76
517.484	-104
517.543	-124
517.587	-97
517.631	-83
517.663	-80
517.869	-35
518.017	-134
518.051	-139
518.178	-161
518.229	-116
518.298	-83
518.378	-111
518.470	-146
518.496	-151
518.560	-136
518.594	-100
518.616	-86
518.658	-36
518.740	-8
518.787	0
518.833	25
518.859	27
518.905	33
518.966	35
518.994	37
519.012	28
519.051	28
519.106	57
519.132	98
519.174	143
519.223	189
519.251	226
519.337	289
519.495	138
519.520	129
519.640	133
519.697	137
519.759	66
519.789	31
519.856	25
519.997	-30
520.026	-37
520.029	-42
520.056	-52
520.147	-45
520.179	-45
520.206	-33
520.270	-6
520.444	-14
520.479	-39
520.597	-132
520.693	-153
520.778	-93
520.913	-47
520.988	-80
521.020	-70
521.087	-11
521.110	-68
521.170	-93
521.227	-145
521.316	-131
521.348	-108
521.488	-60
521.489	-45
521.530	-19
521.651	-26
521.798	-69
521.827	-74
521.862	-57
521.932	-35
521.976	4
521.985	8
522.011	37
522.068	43
522.159	124
522.192	148
522.249	159
522.432	155
522.467	150
522.488	145
522.546	112
522.609	150
522.668	116
522.758	137
522.768	133
522.865	68
522.938	-22
523.062	-71
523.100	-97
523.269	-143
523.331	-139
523.477	-219
523.541	-219
523.600	-207
523.718	-132
523.813	-115
523.873	-64
523.901	-4
523.963	28
524.048	57
524.065	57
524.089	39
524.191	35
524.201	43
524.210	66
524.235	98
524.291	154
524.320	170
524.348	185
524.408	200
524.497	253
524.649	205
524.827	218
524.867	241
524.991	259
525.004	301
525.081	353
525.086	326
525.173	264
525.174	258
525.253	152
525.392	97
525.401	68
525.518	-106
525.577	-149
525.667	-207
525.727	-190
525.791	-199
525.852	-236
525.923	-301
525.972	-373
526.057	-423
526.120	-441
526.176	-434
526.465	-441
526.608	-466
526.629	-478
526.660	-480
526.744	-473
526.809	-498
526.962	-524
527.019	-503
527.076	-460
527.154	-446
527.197	-489
527.288	-516
527.348	-467
527.408	-473
527.471	-493
527.529	-498
527.586	-495
527.648	-552
527.710	-582
527.796	-629
527.926	-598
528.065	-608
528.100	-561
528.158	-552
528.246	-545
528.427	-429
528.456	-421
528.501	-429
528.554	-408
528.610	-390
528.700	-271
528.790	-193
528.820	-137
528.870	-107
528.937	-124
528.999	-151
529.004	-156
529.058	-147
529.122	-193
529.148	-218
529.208	-196
529.270	-178
529.360	-168
529.450	-212
529.676	-251
529.679	-253
529.694	-271
529.751	-276
529.810	-301
529.862	-311
529.863	-314
529.930	-314
530.050	-261
530.107	-209
530.198	-149
530.232	-129
530.257	-139
530.356	-167
530.565	-193
530.659	-169
530.678	-166
530.740	-168
530.800	-161
530.860	-123
530.892	-113
530.977	-127
530.980	-127
531.041	-104
531.126	-123
531.186	-154
531.312	-172
531.398	-190
531.432	-175
531.517	-157
531.577	-139
531.644	-134
531.666	-131
531.673	-131
531.728	-123
531.821	-173
531.878	-209
531.959	-207
531.997	-216
532.122	-256
532.244	-237
532.389	-157
532.417	-136
532.477	-126
532.568	-109
532.785	-164
532.837	-165
533.035	-166
533.045	-170
533.056	-184
533.131	-191
533.203	-195
533.211	-194
533.216	-193
533.237	-186
533.264	-191
533.322	-184
533.450	-175
533.571	-168
533.603	-163
533.715	-159
533.757	-157
533.837	-132
534.024	-98
534.047	-97
534.064	-96
534.128	-112
534.195	-123
534.196	-123
534.262	-131
534.262	-133
534.324	-136
534.338	-159
534.378	-165
534.385	-168
534.416	-171
534.468	-172
534.587	-160
534.669	-147
534.702	-145
534.759	-146
534.817	-145
534.891	-145
534.968	-124
535.029	-102
535.062	-86
535.147	3
535.215	72
535.267	95
535.374	180
535.419	182
535.450	181
535.748	191
535.840	138
535.873	128
535.940	116
536.024	118
536.084	109
536.139	62
536.200	54
536.271	54
536.324	39
536.390	6
536.439	-7
536.528	-3
536.592	23
536.658	67
536.679	129
536.793	144
536.807	163
536.948	132
536.978	110
537.007	101
537.087	70
537.135	29
537.228	-19
537.281	27
537.364	21
537.404	19
537.464	26
537.490	83
537.581	133
537.697	43
537.731	21
537.817	-26
537.933	-46
537.956	-56
538.003	-66
538.074	-52
538.317	46
538.451	-13
538.524	-25
538.572	-24
538.598	-36
538.635	-37
538.726	-61
538.778	-85
538.819	-99
538.898	-135
538.932	-144
539.012	-131
539.097	-117
539.227	-77
539.317	-47
539.409	-48
539.503	-48
539.586	-3
539.680	50
539.797	-21
539.827	-33
539.868	-40
540.074	-11
540.257	-19
540.258	-8
540.337	21
540.372	-8
540.428	-32
540.489	-67
540.578	-97
540.654	-118
540.729	-75
540.818	-80
540.913	-100
540.973	-77
541.160	-67
541.180	-70
541.182	-70
541.360	-34
541.447	-87
541.509	-86
541.567	-66
541.659	-45
541.663	-45
541.721	-51
541.849	-166
541.901	-189
541.951	-269
541.989	-334
542.085	-384
542.151	-394
542.257	-304
542.377	-73
542.463	-26
542.475	-86
542.501	-116
542.561	-166
542.619	-194
542.756	-252
542.831	-262
542.888	-244
542.924	-219
542.983	-213
543.045	-229
543.069	-238
543.161	-151
543.219	-83
543.223	-23
543.277	-37
543.368	-20
543.551	-134
543.580	-208
543.672	-240
543.730	-236
543.787	-206
543.793	-193
543.835	-185
543.907	-99
544.068	19
544.179	-12
544.273	-72
544.328	-35
544.361	-43
544.448	-142
544.483	-170
544.552	-179
544.572	-165
544.631	-156
544.723	-215
544.811	-253
544.901	-231
545.107	-248
545.167	-242
545.257	-211
545.356	-196
545.410	-195
545.418	-176
545.606	-148
545.623	-144
545.681	-145
545.801	-152
545.924	-185
545.952	-243
546.010	-258
546.045	-281
546.131	-265
546.158	-244
546.164	-246
546.222	-253
546.277	-238
546.308	-242
546.342	-246
546.487	-196
546.522	-180
546.581	-180
546.758	-146
546.763	-154
546.853	-190
547.028	-243
547.089	-246
547.167	-240
547.274	-242
547.307	-227
547.392	-202
547.598	-169
547.717	-212
547.767	-185
547.779	-166
547.814	-169
547.884	-176
547.928	-226
548.026	-232
548.030	-223
548.079	-211
548.197	-244
548.289	-247
548.378	-213
548.440	-220
548.527	-263
548.687	-289
548.772	-263
548.831	-287
548.895	-267
548.950	-235
549.007	-257
549.042	-264
549.070	-262
549.099	-249
549.162	-249
549.190	-225
549.221	-225
549.308	-257
549.368	-257
549.430	-243
549.490	-236
549.579	-213
549.657	-230
549.699	-230
549.731	-196
549.879	-208
549.912	-185
549.938	-175
549.974	-133
549.976	-132
550.002	-142
550.031	-179
550.058	-215
550.419	-245
550.450	-257
550.486	-226
550.508	-231
550.718	-257
550.778	-196
550.854	-181
550.914	-201
550.990	-208
551.055	-212
551.056	-217
551.077	-198
551.107	-173
551.200	-106
551.271	-110
551.317	-112
551.350	-114
551.386	-62
551.445	-82
551.527	-146
551.621	-204
551.677	-209
551.678	-205
551.709	-188
551.772	-175
551.881	-161
551.950	-109
551.982	-97
552.098	-104
552.127	-94
552.218	-70
552.279	-74
552.346	-111
552.397	-114
552.547	-231
552.579	-246
552.669	-268
552.790	-210
552.914	-197
552.997	-228
553.031	-246
553.035	-248
553.155	-282
553.211	-306
553.268	-305
553.359	-275
553.363	-276
553.452	-255
553.657	-240
553.720	-228
553.859	-144
553.933	-198
554.017	-214
554.051	-211
554.140	-205
554.198	-209
554.259	-179
554.291	-171
554.361	-187
554.442	-242
554.497	-225
554.587	-178
554.651	-190
554.770	-201
554.829	-188
554.932	-166
554.978	-152
555.104	-130
555.218	-214
555.254	-234
555.367	-256
555.433	-238
555.460	-238
555.520	-198
555.608	-180
555.653	-188
555.655	-193
555.701	-218
555.757	-223
555.821	-222
555.885	-221
555.941	-207
556.089	-201
556.150	-184
556.184	-174
556.243	-176
556.274	-171
556.328	-165
556.478	-133
556.552	-118
556.600	-136
556.672	-160
556.728	-243
556.807	-262
556.879	-280
556.930	-268
556.958	-242
557.053	-235
557.169	-194
557.324	-246
557.379	-318
557.440	-331
557.471	-334
557.575	-316
557.649	-331
557.710	-340
557.745	-331
557.828	-280
557.917	-263
557.979	-241
558.011	-252
558.097	-245
558.130	-234
558.211	-211
558.219	-215
558.222	-217
558.315	-209
558.397	-176
558.471	-165
558.588	-121
558.650	-116
558.698	-100
558.878	-124
558.968	-90
559.091	-161
559.124	-169
559.207	-108
559.268	-105
559.329	-106
559.390	-140
559.447	-163
559.544	-159
559.630	-158
559.717	-157
559.718	-157
559.908	-107
559.911	-109
559.964	-112
560.021	-85
560.079	-70
560.183	-14
560.229	-7
560.287	-27
560.322	-62
560.409	-130
560.469	-135
560.528	-148
560.589	-159
560.649	-163
560.770	-106
560.800	-88
560.857	-93
560.950	-131
560.977	-139
561.009	-142
561.047	-139
561.097	-75
561.158	-67
561.218	-92
561.251	-117
561.351	-126
561.352	-133
561.416	-114
561.440	-105
561.491	68
561.582	207
561.669	188
561.730	134
561.792	70
561.847	-17
561.921	-46
561.970	-91
562.033	-102
562.091	-55
562.212	-33
562.270	-37
562.299	-49
562.330	-90
562.448	-121
562.508	-65
562.597	-155
562.657	-257
562.777	-288
562.838	-251
562.908	-290
562.999	-309
563.002	-325
563.111	-305
563.145	-307
563.150	-305
563.178	-315
563.227	-323
563.234	-331
563.260	-326
563.299	-304
563.377	-319
563.444	-342
563.497	-352
563.532	-337
563.651	-314
563.708	-305
563.889	-256
563.948	-263
563.983	-284
564.043	-293
564.177	-279
564.218	-260
564.222	-237
564.243	-200
564.244	-208
564.388	-179
564.458	-100
564.700	-34
564.794	7
564.822	-33
564.959	-68
565.054	-126
565.062	-129
565.076	-114
565.085	-102
565.127	-116
565.247	-118
565.272	-112
565.284	-111
565.321	-144
565.369	-168
565.384	-184
565.430	-213
565.460	-221
565.477	-208
565.510	-235
565.654	-240
565.674	-263
565.945	-246
565.955	-227
566.000	-202
566.024	-229
566.033	-235
566.099	-231
566.124	-224
566.143	-212
566.248	-245
566.271	-251
566.367	-241
566.411	-206
566.500	-250
566.590	-309
566.652	-322
566.708	-333
566.861	-290
566.867	-277
567.033	-195
567.043	-195
567.147	-317
567.172	-342
567.230	-351
567.286	-326
567.326	-334
567.391	-310
567.414	-328
567.459	-334
567.491	-358
567.566	-358
567.616	-368
567.677	-388
567.751	-441
567.793	-436
567.851	-425
567.922	-303
568.035	-244
568.040	-203
568.061	-228
568.121	-223
568.154	-231
568.238	-165
568.298	-135
568.387	-182
568.448	-242
568.511	-260
568.571	-283
568.627	-314
568.661	-341
568.719	-350
568.824	-307
569.051	-316
569.083	-312
569.176	-322
569.267	-355
569.287	-356
569.348	-318
569.410	-272
569.499	-274
569.595	-321
569.621	-336
569.658	-336
569.678	-350
569.738	-337
569.771	-320
569.821	-289
569.858	-282
569.928	-300
569.930	-303
569.955	-299
570.009	-278
570.075	-241
570.164	-232
570.218	-243
570.289	-218
570.350	-188
570.428	-189
570.472	-195
570.520	-195
570.581	-190
570.647	-188
570.673	-174
570.822	-167
570.919	-176
570.968	-143
570.999	-114
571.094	-115
571.148	-115
571.249	-84
571.301	-14
571.420	-78
571.453	-95
571.480	-87
571.548	-40
571.572	-63
571.657	-101
571.661	-106
571.717	-128
571.747	-113
571.809	-38
571.870	-22
571.966	-72
572.051	-112
572.110	-95
572.198	-84
572.257	-90
572.381	-71
572.413	-77
572.440	-100
572.512	-141
572.622	-219
572.677	-173
572.739	-121
572.802	-175
572.881	-228
572.925	-240
572.979	-222
573.059	-152
573.074	-152
573.103	-165
573.158	-245
573.197	-269
573.249	-234
573.252	-235
573.310	-228
573.431	-303
573.492	-343
573.522	-336
573.644	-235
573.700	-185
573.790	-147
573.848	-226
573.909	-248
573.969	-243
574.113	-291
574.169	-294
574.247	-388
574.269	-423
574.303	-404
574.367	-397
574.368	-396
574.391	-410
574.428	-382
574.538	-348
574.608	-312
574.662	-376
574.673	-422
574.779	-446
574.898	-399
574.932	-386
574.987	-374
575.025	-351
575.052	-372
575.172	-406
575.379	-414
575.381	-415
575.458	-387
575.501	-335
575.589	-274
575.648	-314
575.710	-314
575.827	-276
575.863	-272
575.986	-235
576.018	-250
576.071	-249
576.260	-165
576.340	-256
576.371	-299
576.422	-329
576.493	-341
576.524	-351
576.670	-350
576.701	-367
576.790	-319
576.884	-319
577.030	-341
577.118	-315
577.165	-318
577.245	-291
577.301	-316
577.363	-331
577.391	-320
577.454	-297
577.549	-296
577.574	-282
577.689	-185
577.838	-154
577.899	-229
578.022	-328
578.051	-366
578.090	-367
578.170	-325
578.208	-323
578.234	-307
578.319	-289
578.355	-243
578.409	-191
578.450	-163
578.516	-200
578.589	-190
578.656	-168
578.768	-227
578.773	-288
578.830	-313
578.912	-272
579.005	-200
579.020	-206
579.137	-110
579.201	-85
579.224	-77
579.460	-71
579.476	-61
579.789	12
579.794	21
579.942	10
579.990	20
580.016	29
580.064	41
580.075	65
580.116	61
580.129	56
580.342	21
580.354	5
580.385	-3
580.413	-5
580.443	36
580.457	38
580.493	8
580.571	-49
580.593	-58
580.611	-65
580.646	-172
580.705	-214
580.726	-192
580.754	-178
580.818	-143
580.841	-132
580.909	-108
580.990	-90
581.026	-118
581.120	-195
581.121	-197
581.201	-182
581.335	-159
581.381	-190
581.508	-232
581.529	-214
581.563	-211
581.663	-222
581.711	-246
581.835	-258
581.891	-194
582.076	-229
582.128	-172
582.132	-145
582.244	-131
582.256	-142
582.363	-153
582.400	-133
582.428	-151
582.489	-235
582.580	-406
582.615	-460
582.644	-475
582.698	-354
582.798	-253
582.851	-255
582.885	-281
583.000	-333
583.212	-202
583.213	-198
583.265	-210
583.361	-161
583.396	-178
583.514	-248
583.600	-238
583.752	-288
583.845	-230
583.988	-175
584.018	-186
584.108	-236
584.168	-225
584.216	-177
584.261	-136
584.409	-101
584.442	-113
584.528	-49
584.588	-48
584.678	-119
584.738	-111
584.802	-63
584.889	-155
585.018	-215
585.056	-275
585.072	-282
585.103	-276
585.133	-282
585.197	-255
585.248	-218
585.398	-187
585.461	-198
585.580	-188
585.641	-94
585.728	-99
585.788	-117
585.925	-97
585.967	-22
585.998	11
586.034	34
586.209	4
586.242	19
586.331	35
586.449	-82
586.511	-182
586.748	-322
586.854	-336
586.933	-256
587.051	-171
587.160	-318
587.176	-334
587.231	-257
587.288	-239
587.341	-229
587.380	-200
587.468	-152
587.558	-181
587.618	-214
587.679	-249
587.738	-270
587.828	-290
587.888	-257
587.952	-197
587.981	-220
588.069	-245
588.129	-217
588.223	-147
588.359	-177
588.370	-209
588.496	-190
588.548	-182
588.761	-210
588.854	-113
588.891	-166
589.099	-242
589.165	-170
589.243	-133
589.312	-131
589.359	-156
589.425	-175
589.483	-158
589.514	-139
589.666	-172
589.750	-204
589.754	-193
589.784	-200
589.850	-254
589.930	-249
589.960	-249
590.020	-217
590.139	-247
590.203	-217
590.409	-294
590.531	-278
590.681	-241
590.711	-268
590.800	-271
590.908	-214
590.953	-216
591.085	-323
591.089	-347
591.189	-334
591.529	-144
591.584	-181
591.609	-231
591.653	-235
591.671	-246
591.732	-249
591.766	-226
591.820	-224
591.851	-193
591.919	-146
591.965	-113
592.001	-62
592.058	-71
592.100	-65
592.178	-85
592.249	-73
592.360	-53
592.538	0
592.633	-14
592.690	-52
592.769	-135
592.787	-196
592.898	-202
592.959	-176
592.992	-147
593.052	-146
593.115	-164
593.119	-166
593.236	-115
593.258	-109
593.290	-102
593.350	-88
593.409	-101
593.411	-99
593.471	-70
593.472	-71
593.648	-120
593.679	-101
593.769	-122
593.860	-141
593.995	-163
594.038	-186
594.085	-188
594.387	-207
594.515	-171
594.523	-166
594.709	-124
594.718	-100
594.741	-89
594.756	-92
594.814	-93
594.852	-89
594.993	-25
595.015	-23
595.055	-14
595.186	-42
595.193	-24
595.242	30
595.490	-38
595.512	9
595.523	24
595.581	83
595.584	95
595.634	69
595.693	15
595.726	6
595.782	-30
595.843	-70
596.094	-61
596.112	-98
596.121	-70
596.162	-41
596.213	-112
596.263	-172
596.440	-54
596.563	-104
596.675	-229
596.687	-246
596.717	-251
596.743	-223
596.986	-253
597.008	-268
597.045	-303
597.115	-359
597.189	-470
597.286	-463
597.335	-451
597.402	-441
597.557	-511
597.581	-488
597.822	-434
597.947	-426
597.977	-418
598.060	-413
598.120	-401
598.181	-393
598.211	-348
598.269	-393
598.331	-369
598.478	-437
598.512	-437
598.569	-414
598.760	-408
598.783	-406
598.869	-366
598.913	-328
598.961	-330
599.112	-369
599.150	-348
599.168	-337
599.232	-340
599.321	-364
599.348	-373
599.381	-379
599.438	-350
599.528	-242
599.572	-203
599.621	-192
599.653	-174
599.769	-69
599.830	-44
599.939	-72
599.944	-79
599.956	-90
600.008	-64
600.015	-60
600.071	-33
600.130	-62
600.249	-140
600.279	-149
600.375	-156
600.432	-166
600.497	-144
600.525	-169
600.671	-247
600.768	-318
600.890	-225
600.912	-200
601.032	-98
601.092	-87
601.178	-166
601.242	-220
601.292	-253
601.358	-262
601.393	-250
601.479	-195
601.539	-209
601.601	-236
601.658	-293
601.870	-418
601.922	-423
601.958	-483
601.989	-473
602.050	-415
602.110	-399
602.169	-418
602.174	-419
602.213	-415
602.286	-390
602.318	-367
602.383	-371
602.468	-441
602.531	-417
602.619	-373
602.653	-378
602.710	-374
602.771	-372
602.860	-360
602.896	-375
602.923	-412
602.979	-411
603.073	-378
603.128	-361
603.218	-387
603.310	-402
603.582	-382
603.608	-379
603.616	-379
603.650	-382
603.698	-402
603.760	-358
603.791	-370
603.856	-355
603.927	-402
603.998	-408
604.073	-401
604.182	-424
604.211	-432
604.275	-436
604.336	-390
604.395	-372
604.515	-494
604.612	-480
604.658	-466
604.758	-445
604.810	-442
604.873	-432
605.040	-391
605.381	-265
605.413	-276
605.472	-315
605.590	-214
605.649	-178
605.772	-228
605.856	-221
605.890	-227
605.972	-240
605.984	-281
606.012	-315
606.166	-265
606.267	-320
606.281	-328
606.340	-327
606.346	-328
606.380	-326
606.430	-300
606.490	-314
606.524	-359
606.650	-337
606.730	-309
606.791	-318
606.881	-325
606.945	-360
607.002	-365
607.060	-331
607.126	-273
607.208	-262
607.254	-265
607.331	-332
607.421	-298
607.484	-277
607.538	-257
607.540	-257
607.599	-263
607.781	-250
607.811	-246
607.930	-254
607.960	-264
608.078	-228
608.110	-232
608.200	-240
608.322	-267
608.352	-274
608.410	-234
608.462	-225
608.501	-194
608.571	-216
608.625	-220
608.747	-277
608.860	-279
608.935	-300
608.954	-325
609.061	-382
609.098	-250
609.193	-202
609.281	-249
609.356	-314
609.430	-292
609.524	-342
609.583	-389
609.671	-420
609.673	-420
609.730	-418
609.761	-422
609.853	-438
609.923	-427
609.998	-416
610.062	-426
610.120	-399
610.210	-372
610.269	-324
610.361	-330
610.427	-385
610.491	-393
610.628	-353
610.666	-349
610.688	-339
610.809	-296
610.850	-285
610.922	-271
610.937	-253
610.993	-256
611.059	-232
611.265	-103
611.292	-111
611.320	-113
611.324	-114
611.409	-106
611.469	-74
611.476	-71
611.478	-68
611.506	-65
611.530	-61
611.628	-86
611.710	-88
611.798	-71
611.832	-80
611.890	-88
611.985	-77
612.054	-80
612.110	-88
612.219	-189
612.280	-185
612.284	-183
612.369	-159
612.490	-199
612.519	-201
612.562	-218
612.613	-207
612.731	-237
612.796	-245
612.851	-223
612.916	-220
612.957	-221
613.060	-266
613.091	-261
613.149	-243
613.210	-187
613.256	-184
613.303	-204
613.360	-215
613.389	-257
613.560	-197
613.603	-165
613.690	-219
613.820	-253
613.930	-200
613.972	-274
614.048	-402
614.154	-346
614.322	-380
614.469	-336
614.501	-364
614.681	-202
614.712	-157
614.750	-168
614.801	-205
614.866	-223
615.001	-202
615.081	-188
615.199	-225
615.521	-199
615.539	-188
615.556	-189
615.816	-292
615.843	-280
615.858	-275
615.953	-288
615.986	-286
616.061	-300
616.096	-324
616.152	-319
616.328	-316
616.367	-328
616.461	-331
616.623	-341
616.634	-336
616.639	-329
616.661	-326
616.665	-311
616.782	-276
617.324	-294
617.337	-288
617.353	-305
617.395	-305
617.399	-303
617.637	-246
617.650	-224
617.711	-197
617.747	-176
617.808	-159
617.814	-196
617.821	-200
617.838	-232
617.859	-232
617.882	-249
617.926	-269
618.137	-285
618.200	-291
618.214	-351
618.229	-378
618.270	-394
618.296	-373
618.361	-356
618.374	-338
618.403	-324
618.462	-304
618.494	-272
618.553	-251
618.593	-253
618.610	-247
618.737	-303
618.795	-313
618.856	-329
618.934	-313
619.005	-307
619.040	-307
619.152	-299
619.243	-265
619.307	-236
619.433	-209
619.478	-210
619.514	-240
619.599	-248
619.631	-242
619.661	-233
619.694	-220
619.775	-176
619.815	-189
619.843	-167
619.991	-129
619.998	-134
620.081	-119
620.156	-169
620.157	-171
620.232	-231
620.409	-194
620.494	-197
620.516	-210
620.567	-209
620.627	-185
620.678	-142
620.764	-52
620.803	-50
620.919	-210
620.965	-239
620.966	-208
621.058	-55
621.107	-21
621.169	-20
621.221	-23
621.260	-24
621.350	48
621.373	58
621.401	35
621.489	-20
621.525	-41
621.670	-138
621.702	-137
621.790	-105
621.851	-111
621.920	-74
621.979	-88
622.040	-119
622.068	-119
622.199	-38
622.244	-66
622.267	-70
622.278	-108
622.338	-140
622.363	-163
622.541	-208
622.550	-216
622.705	-257
622.760	-263
622.770	-274
622.825	-268
622.835	-290
622.848	-312
623.010	-374
623.033	-309
623.075	-274
623.126	-223
623.194	-221
623.222	-175
623.304	-152
623.350	-154
623.444	-183
623.479	-196
623.505	-219
623.591	-183
623.651	-186
623.754	-167
623.801	-175
623.864	-164
624.025	-215
624.071	-224
624.168	-196
624.251	-208
624.282	-220
624.283	-219
624.375	-222
624.583	-239
624.655	-216
624.689	-217
624.731	-194
624.825	-214
624.894	-239
624.939	-235
624.999	-178
625.150	-176
625.194	-187
625.223	-224
625.249	-234
625.299	-256
625.377	-246
625.395	-256
625.421	-261
625.476	-260
625.484	-261
625.578	-318
625.603	-335
625.691	-384
625.694	-390
625.754	-421
625.812	-454
625.869	-436
625.939	-427
625.976	-412
626.050	-401
626.112	-407
626.236	-320
626.266	-294
626.349	-306
626.384	-299
626.450	-230
626.536	-214
626.681	-267
626.748	-279
626.751	-280
626.861	-281
626.967	-236
627.040	-211
627.099	-211
627.132	-199
627.204	-192
627.224	-150
627.289	-143
627.378	-163
627.400	-188
627.434	-205
627.522	-234
627.551	-235
627.672	-235
627.701	-237
627.852	-176
627.912	-185
627.981	-189
628.032	-179
628.089	-156
628.123	-169
628.254	-150
628.330	-184
628.333	-168
628.365	-168
628.418	-133
628.511	-84
628.550	-85
628.575	-98
628.634	-85
628.722	-110
628.755	-135
628.946	-162
629.001	-194
629.494	-117
629.520	-101
629.681	-138
629.747	-85
629.973	-60
629.981	-77
630.019	-140
630.111	-134
630.170	-95
630.250	-110
630.317	-214
630.348	-227
630.392	-209
630.447	-203
630.504	-164
630.525	-107
630.557	-70
630.617	-29
630.673	-21
630.731	-37
630.820	-60
630.931	-60
630.973	-90
631.034	-141
631.063	-143
631.095	-152
631.244	-44
631.717	-35
631.724	-48
634.621	-76
634.673	-89
634.693	-91
635.844	-87
636.050	-243
636.057	-268
636.065	-285
636.089	-283
636.549	-134
638.210	-79
638.235	-76
638.271	-117
638.307	-127
638.397	-109
638.472	-131
638.599	66
638.611	76
638.681	141
638.754	291
638.763	322
638.862	312
638.863	241
638.892	170
638.973	131
639.125	83
639.193	68
639.221	44
639.257	21
639.269	11
639.326	156
639.346	203
639.445	223
639.455	213
639.489	162
639.521	130
639.584	65
639.641	62
639.677	84
639.678	98
639.770	144
639.844	129
639.882	81
639.940	46
640.003	37
640.140	2
640.183	-9
640.190	-9
640.367	92
640.422	90
640.464	68
640.577	76
640.763	36
640.766	33
640.806	22
640.921	37
640.923	46
640.944	46
641.066	45
641.071	40
641.119	36
641.149	20
641.295	-37
641.356	-4
641.410	-6
641.476	-94
641.533	-183
641.627	-238
641.657	-233
641.773	-108
641.876	-103
641.893	-95
642.072	-89
642.115	-75
642.192	-69
642.259	-62
642.282	-64
642.286	-64
642.359	-76
642.618	-167
642.703	-88
642.806	-101
642.882	-158
642.926	-196
643.061	-398
643.151	-414
643.238	-429
643.282	-428
643.316	-421
643.335	-401
643.399	-388
643.483	-341
643.541	-292
643.603	-279
643.752	-270
643.789	-273
643.801	-278
643.842	-234
643.877	-191
643.931	-167
643.972	-179
643.996	-158
644.053	-163
644.112	-138
644.172	-128
644.263	-132
644.325	-128
644.465	-127
644.531	-140
644.564	-138
644.621	-109
644.685	-60
644.780	-35
644.835	-63
644.967	-51
645.015	-44
645.083	-79
645.105	-88
645.132	-140
645.139	-152
645.195	-155
645.304	-143
645.372	-144
645.375	-141
645.460	-143
645.550	-154
645.579	-169
645.670	-232
645.704	-299
645.912	-370
645.962	-358
645.999	-421
646.031	-462
646.096	-494
646.156	-509
646.158	-510
646.219	-513
646.303	-584
646.306	-589
646.370	-585
646.420	-526
646.510	-489
646.542	-470
646.545	-464
646.606	-448
646.706	-428
646.754	-385
646.784	-372
646.933	-376
646.962	-388
647.051	-409
647.085	-429
647.162	-479
647.204	-475
647.320	-388
647.384	-358
647.415	-352
647.502	-346
647.584	-361
647.626	-435
647.769	-413
647.778	-397
647.782	-386
647.860	-339
647.865	-312
647.931	-322
647.964	-366
648.042	-348
648.109	-300
648.193	-235
648.253	-220
648.312	-204
648.433	-169
648.508	-173
648.561	-175
648.614	-195
648.687	-205
648.738	-205
648.834	-176
648.859	-131
648.866	-116
648.900	-51
648.942	18
649.095	112
649.133	89
649.215	-13
649.295	-102
649.330	-84
649.483	75
649.544	120
649.629	145
649.691	165
649.753	170
649.814	151
650.187	134
650.197	60
650.284	7
650.346	-70
650.429	-157
650.456	-169
650.473	-180
650.571	-187
650.599	-195
650.621	-170
650.641	-161
650.646	-160
650.913	-164
650.967	-212
651.001	-207
651.013	-174
651.023	-161
651.029	-172
651.044	-207
651.046	-220
651.662	-206
651.689	-200
651.703	-192
651.718	-138
651.731	-128
651.776	-113
651.799	-133
651.822	-139
651.861	-141
651.915	-123
651.950	-110
652.003	-116
652.062	-136
652.124	-154
652.158	-159
652.212	-163
652.241	-193
652.334	-217
652.511	-202
652.581	-132
652.661	-55
652.691	-70
652.780	-156
652.847	-204
652.904	-222
653.062	-131
653.085	-145
653.178	-97
653.232	-76
653.625	-8
653.650	-442
653.682	-397
653.932	-335
653.941	-312
653.950	-399
653.957	-468
653.998	-433
654.105	-403
654.121	-357
654.162	-373
654.191	-362
654.286	-322
654.294	-271
654.331	-158
654.409	-181
654.433	-191
654.552	-208
654.583	-260
654.680	-353
654.735	-288
654.823	-417
654.881	-547
654.969	-408
654.973	-335
655.069	-208
655.094	-119
655.251	-132
655.281	-87
655.625	40
655.633	44
655.646	86
655.655	101
655.711	19
655.782	3
655.840	-73
655.883	49
655.966	125
655.970	125
656.123	-243
656.131	-296
656.146	-342
656.203	-139
656.328	66
656.351	76
656.381	82
656.449	105
656.510	53
656.591	-154
656.680	-294
656.743	-249
656.804	-106
656.892	-42
656.923	-69
656.980	1
657.018	4
657.130	-97
657.167	-90
657.194	-105
657.251	-188
657.315	-182
657.377	-114
657.448	-37
657.462	-23
657.495	-23
657.520	37
657.524	56
657.552	64
657.585	42
657.675	56
657.854	-119
657.886	-115
658.030	-79
658.120	-61
658.307	-56
658.361	-109
658.453	-179
658.512	-205
658.600	-142
658.636	-120
658.699	-67
658.780	-121
658.861	-100
658.867	-89
658.903	-46
658.935	-37
659.111	-51
659.156	26
659.173	26
659.354	-74
659.386	-95
659.444	-120
659.591	-131
659.681	-148
659.717	-140
659.802	-202
659.897	-215
659.954	-139
660.010	-138
660.073	-184
660.102	-178
660.104	-167
660.221	-152
660.282	-153
660.371	-100
660.431	-75
660.483	-90
660.513	-104
660.518	-108
660.543	-113
660.670	-93
660.732	-147
660.794	-133
660.911	-105
660.971	-153
661.031	-188
661.034	-191
661.071	-152
661.150	-72
661.213	-52
661.332	-101
661.454	52
661.483	128
661.555	144
661.600	135
661.633	92
661.697	-231
661.872	-75
661.935	-37
661.991	-37
662.117	-131
662.172	-219
662.306	-187
662.310	-184
662.323	-176
662.324	-177
662.353	-202
662.380	-335
662.503	-355
662.681	-313
662.714	-345
662.818	-288
662.929	-186
663.132	-344
663.245	-329
663.313	-381
663.403	-360
663.435	-350
663.475	-333
663.551	-301
663.557	-306
663.612	-320
663.683	-309
663.732	-255
663.740	-246
663.916	-138
663.955	-272
664.003	-203
664.066	-172
664.120	-138
664.128	-129
664.156	-108
664.180	-110
664.247	-109
664.302	-110
664.331	-60
664.424	-47
664.454	-216
664.511	-267
664.601	-403
664.690	-44
664.750	17
664.754	22
664.782	61
664.816	68
664.960	-165
665.028	-218
665.034	-216
665.050	-177
665.149	-192
665.234	-266
665.293	-210
665.380	-70
665.472	104
665.542	63
665.564	15
665.598	7
665.650	3
665.800	80
665.865	4
665.900	-76
665.981	-65
666.102	-10
666.103	-8
666.161	7
666.193	39
666.340	-163
666.347	-173
666.405	-261
666.432	-305
666.462	-301
666.463	-304
666.537	-278
666.584	-248
666.670	-210
666.700	-259
666.762	-278
666.915	-116
667.005	-155
667.091	-30
667.124	28
667.210	53
667.258	62
667.330	75
667.390	54
667.454	29
667.548	-41
667.630	15
667.698	67
667.722	60
667.812	-5
667.842	-56
667.848	-61
667.876	-62
667.902	-50
667.961	-171
668.024	-223
668.110	-103
668.113	-103
668.172	-133
668.294	-161
668.353	-181
668.412	-172
668.416	-178
668.474	-282
668.530	-385
668.683	-238
668.892	-205
668.985	-220
669.070	-319
669.131	-297
669.292	-312
669.371	-364
669.433	-380
669.464	-357
669.550	-285
669.654	-252
669.674	-253
669.731	-306
669.822	-392
669.883	-392
669.889	-328
669.957	-258
670.003	-296
670.067	-281
670.068	-429
670.156	-25
670.243	34
670.330	-153
670.511	-442
670.550	-504
670.603	-506
670.691	-288
670.783	-248
670.812	-302
670.997	-215
671.007	-204
671.023	-214
671.080	-325
671.113	-329
671.233	-293
671.295	-150
671.474	-290
671.534	-363
671.566	-368
671.591	-280
671.651	-149
671.750	-77
671.804	-209
671.895	-254
671.924	-244
671.984	-184
672.012	-238
672.132	-457
672.174	-480
672.193	-488
672.250	-336
672.312	-324
672.405	-273
672.467	-194
672.522	-208
672.524	-214
672.557	-213
672.671	-254
672.703	-235
672.851	-380
672.913	-409
672.971	-300
673.034	-279
673.124	-486
673.211	-566
673.214	-566
673.254	-545
673.588	-443
673.594	-443
673.622	-346
673.635	-314
673.636	-324
673.706	-421
673.766	-370
673.784	-297
673.816	-262
673.827	-248
673.838	-269
673.903	-212
673.970	-146
673.984	-125
674.119	-147
674.151	-202
674.220	-362
674.270	-348
674.311	-276
674.398	-262
674.412	-228
674.506	-352
674.709	-378
674.743	-420
674.852	-333
674.876	-343
674.886	-321
674.973	-225
674.988	-230
675.038	-222
675.083	-271
675.104	-214
675.141	-99
675.197	-116
675.259	-131
675.278	-155
675.389	-207
675.393	-240
675.420	-197
675.434	-225
675.475	-247
675.673	-282
675.688	-312
675.705	-320
675.724	-250
675.756	-219
675.811	-268
675.826	-446
675.929	-502
676.078	-548
676.175	-325
676.276	-28
676.287	58
676.313	145
676.375	105
676.380	136
676.546	-5
676.560	-10
676.574	21
676.579	-20
676.596	-93
676.635	-151
676.758	-92
676.783	-94
676.815	-142
677.061	-202
677.138	-228
677.152	-188
677.197	-157
677.215	-190
677.225	-180
677.266	-160
677.297	-118
677.323	-34
677.358	-7
677.415	15
677.472	-38
677.534	-73
677.620	-89
677.711	22
677.782	-82
677.972	-199
678.073	-161
678.224	-180
678.313	-231
678.454	-100
678.473	-161
678.530	-189
678.626	-189
678.708	-11
678.851	-18
678.936	-213
678.968	-213
678.980	-235
679.005	-239
679.062	7
679.158	2
679.330	31
679.393	31
679.459	97
679.511	-27
679.613	-191
679.633	-313
679.724	-294
679.870	-279
679.932	-97
680.080	-140
680.175	-455
680.271	-177
680.327	-50
680.394	-47
680.442	-109
680.504	-190
680.564	-186
680.660	-237
680.801	-396
680.982	-360
681.015	-236
681.073	-227
681.107	-203
681.196	-164
681.280	-60
681.433	-125
681.551	-39
681.652	-235
681.703	-414
681.705	-423
681.885	-258
681.947	-288
682.032	-363
682.065	-472
682.155	-511
682.216	-552
682.272	-622
682.301	-619
682.484	-488
682.632	-368
682.719	-335
682.780	-336
682.840	-368
682.923	-385
682.929	-309
682.961	-263
682.997	-239
683.113	55
683.201	108
683.234	135
683.351	132
683.415	82
683.529	-104
683.622	-10
683.650	-74
683.652	-83
683.755	-260
683.843	-216
683.951	-188
684.022	-195
684.080	-220
684.085	-169
684.132	-175
684.147	-249
684.205	-217
684.297	-241
684.304	-246
684.310	-167
684.349	-158
684.459	-54
684.522	-58
684.655	32
684.729	-73
684.854	-426
684.970	-298
685.030	-187
685.089	-330
685.160	-364
685.246	-368
685.301	-329
685.331	-333
685.476	-357
685.514	-440
685.604	-460
685.721	-446
685.899	-414
685.949	-418
685.965	-441
686.080	-480
686.231	-569
686.350	-483
686.379	-433
686.414	-412
686.475	-427
686.534	-425
686.736	-347
686.792	-450
686.867	-445
686.957	-396
687.078	-347
687.086	-275
687.221	-151
687.279	-211
687.312	-225
687.360	-253
687.372	-253
687.404	-203
687.530	-128
687.579	-245
687.701	-382
687.760	-327
687.822	-243
687.855	-245
687.883	-259
687.926	-355
687.940	-396
688.120	-377
688.179	-289
688.240	-277
688.301	-232
688.329	-293
688.464	-278
688.493	-299
688.660	-371
688.694	-403
688.719	-340
688.811	-282
688.880	-337
688.991	-345
689.074	-293
689.141	-318
689.284	-279
689.296	-215
689.412	-98
689.508	-279
689.625	-195
689.683	-192
689.741	-210
689.774	-246
689.834	-191
689.920	-124
690.065	-156
690.207	-46
690.310	-176
690.340	-235
690.370	-406
690.404	-444
690.459	-359
690.489	-341
690.561	-297
690.625	-270
690.672	-264
690.704	-249
690.735	-256
690.801	-335
690.856	-310
690.914	-253
690.915	-253
690.968	-265
691.030	-333
691.121	-305
691.183	-268
691.214	-277
691.270	-298
691.332	-326
691.421	-332
691.480	-343
691.600	-344
691.606	-246
691.634	-232
691.662	-248
691.730	-393
691.810	-487
691.843	-470
691.902	-396
692.017	-387
692.090	-506
692.097	-520
692.101	-529
692.256	-496
692.452	-462
692.522	-472
692.580	-509
692.593	-434
692.642	-469
692.667	-431
692.772	-467
692.840	-512
693.012	-410
693.027	-437
693.151	-508
693.178	-633
693.294	-424
693.313	-447
693.339	-580
693.355	-603
693.374	-617
693.453	-594
693.539	-618
693.585	-621
693.594	-638
693.655	-587
693.791	-526
693.944	-490
693.952	-495
693.996	-469
694.011	-498
694.031	-511
694.091	-525
694.093	-523
694.264	-354
694.480	-413
694.552	-285
694.631	-302
694.661	-328
694.697	-347
694.702	-353
694.763	-322
694.879	-323
694.962	-330
695.043	-361
695.176	-179
695.281	-271
695.321	-326
695.459	-395
695.516	-361
695.550	-220
695.605	-109
695.787	-459
695.805	-454
695.832	-450
695.863	-487
695.983	-494
696.015	-486
696.079	-451
696.136	-362
696.228	-367
696.269	-375
696.388	-303
696.435	-330
696.494	-337
696.790	-433
696.831	-407
696.850	-358
696.914	-275
696.974	-326
697.124	-411
697.181	-323
697.249	-386
697.329	-365
697.399	-314
697.450	-322
697.510	-396
697.569	-408
697.632	-357
697.695	-249
697.784	-306
697.841	-310
697.847	-301
697.931	-236
697.996	-227
698.020	-200
698.080	-151
698.174	-268
698.232	-268
698.290	-319
698.381	-382
698.471	-442
698.506	-477
698.532	-478
698.561	-504
698.624	-464
698.753	-365
698.772	-365
698.984	-261
699.162	-214
699.344	-345
699.400	-385
699.460	-305
699.579	-368
699.613	-361
699.670	-348
699.674	-313
699.700	-251
699.850	-171
699.914	-228
699.956	-246
700.032	-214
700.067	-189
700.093	-210
700.272	-301
700.305	-282
700.390	-161
700.482	-277
700.563	-263
700.602	-287
700.663	-232
700.666	-210
700.721	-180
700.781	-195
700.856	-193
700.858	-193
700.900	-181
701.026	-119
701.054	-119
701.152	-67
701.199	-53
701.292	-108
701.354	-117
701.469	-232
701.530	-297
701.560	-372
701.627	-386
701.679	-401
701.759	-462
701.805	-443
701.834	-402
701.973	-411
701.974	-485
701.977	-498
701.991	-486
702.169	-268
702.191	-230
702.254	-235
702.288	-281
702.400	-336
702.520	-471
702.581	-529
702.619	-459
702.672	-387
702.731	-393
702.823	-413
702.853	-342
702.927	-346
702.971	-383
703.032	-416
703.101	-413
703.108	-397
703.212	-462
703.361	-364
703.454	-380
703.512	-280
703.602	-244
703.661	0
703.691	75
703.864	305
703.961	195
704.062	103
704.236	125
704.380	124
704.416	7
704.471	14
704.600	-133
704.652	-8
704.769	-144
704.804	-167
704.836	-120
704.924	-111
704.954	-65
704.979	-192
705.130	-411
705.221	-339
705.319	-210
705.370	-190
705.448	-149
705.460	-96
705.520	-84
705.581	-105
705.730	-453
705.790	-352
705.822	-340
705.886	-244
705.971	-325
706.034	-306
706.092	-372
706.307	-384
706.330	-324
706.480	-336
706.575	-271
706.661	-147
706.725	-180
706.749	-246
706.809	-322
706.872	-341
706.974	-324
707.051	-350
707.084	-328
707.123	-303
707.201	-96
707.269	-27
707.383	-34
707.470	-66
707.518	-107
707.589	-236
707.681	-171
707.749	-98
707.805	-47
707.834	-71
707.955	-34
708.010	3
708.070	-46
708.132	-66
708.220	-134
708.252	-145
708.280	-147
708.351	-114
708.374	4
708.460	-132
708.491	-115
708.494	-104
708.789	-178
708.822	-261
709.005	-380
709.033	-309
709.092	-419
709.153	-333
709.271	-455
709.330	-442
709.420	-329
709.453	-321
709.551	-149
709.630	-37
709.719	-174
709.753	-280
709.870	-325
709.962	-106
710.024	-267
710.173	-54
710.203	-23
710.289	-85
710.371	-106
710.411	-104
710.502	-231
710.534	-258
710.562	-247
710.623	-193
710.681	-185
710.801	-234
710.864	-242
710.895	-285
710.951	-420
711.009	-407
711.071	-639
711.130	-544
711.230	-157
711.250	-104
711.283	-69
711.382	-267
711.461	-31
711.521	83
711.614	-109
711.672	-235
711.730	-160
711.826	-249
711.852	-274
711.903	-302
711.944	-435
712.043	-523
712.123	-543
712.182	-590
712.304	-470
712.457	-566
712.512	-598
712.574	-592
712.661	-594
712.761	-622
712.821	-555
712.934	-476
712.945	-458
712.978	-454
713.051	-433
713.150	-209
713.151	-154
713.176	-161
713.209	-142
713.290	-189
713.320	-234
713.415	-240
713.474	-330
713.679	-313
713.714	-103
713.816	-1
713.862	65
713.951	88
714.011	82
714.049	61
714.106	-33
714.189	-99
714.250	-108
714.310	-135
714.369	-163
714.524	-135
714.581	-206
714.759	-147
714.789	-134
714.822	-132
714.912	-108
714.973	-154
715.032	-236
715.062	-299
715.120	-305
715.180	-401
715.332	-433
715.362	-431
715.457	-397
715.511	-376
715.571	-302
715.663	-238
715.694	-247
715.725	-275
715.782	-504
715.847	-541
715.991	-471
716.050	-409
716.113	-364
716.204	-415
716.292	-491
716.391	-415
716.410	-418
716.419	-446
716.539	-486
716.562	-473
716.710	-377
716.831	-387
716.869	-351
716.934	-283
716.953	-327
717.052	-373
717.100	-432
717.192	-422
717.255	-468
717.311	-518
717.431	-449
717.464	-452
717.525	-487
717.583	-499
717.611	-462
717.669	-406
717.766	-378
717.973	-452
718.211	-396
718.271	-248
718.332	-138
718.393	-107
718.456	-55
718.556	-148
718.631	-97
718.632	-94
718.690	-73
718.780	-126
718.852	7
718.935	123
719.021	20
719.081	-92
719.149	-55
719.232	0
719.414	-21
719.503	50
719.532	60
719.620	-5
719.712	-158
719.752	-183
719.774	-250
719.801	-248
719.833	-292
719.868	-321
719.920	-362
719.988	-371
720.100	-400
720.160	-384
720.251	-408
720.285	-338
720.374	-179
720.436	-140
720.513	-160
720.550	-181
720.649	-149
720.705	-129
720.729	-103
720.822	-72
721.060	-35
721.156	-38
721.421	-124
721.455	-131
721.512	-167
721.571	-285
721.753	-228
721.821	-211
721.900	-274
722.032	-188
722.114	-223
722.222	-330
722.444	-362
722.627	-288
722.851	-254
722.923	-236
722.934	-254
723.012	-389
723.056	-423
723.107	-444
723.119	-423
723.147	-410
723.244	-384
723.254	-399
723.293	-430
723.342	-447
723.431	-402
723.474	-412
723.581	-399
723.661	-391
723.703	-424
723.793	-386
723.855	-384
723.915	-377
723.967	-330
724.007	-253
724.065	-275
724.147	-288
724.212	-338
724.219	-341
724.296	-354
724.297	-354
724.428	-391
724.483	-384
724.611	-311
724.633	-318
724.635	-321
724.691	-313
724.725	-298
724.883	-253
724.943	-256
724.984	-320
725.042	-365
725.085	-334
725.100	-321
725.175	-131
725.231	-127
725.292	-274
725.409	-129
725.477	-13
725.545	10
725.678	9
725.692	-92
725.952	-331
725.964	-339
726.012	-343
726.106	-470
726.163	-536
726.195	-540
726.252	-505
726.408	-323
726.434	-311
726.437	-327
726.534	-359
726.588	-359
726.710	-295
726.734	-313
726.825	-169
726.856	-131
726.925	-22
726.973	-67
727.091	14
727.159	-6
727.274	-129
727.332	-111
727.362	-32
727.423	-53
727.512	-42
727.763	-613
727.782	-613
727.940	-525
727.965	-530
727.990	-538
728.050	-504
728.087	-460
728.115	-441
728.208	-295
728.324	-259
728.478	-315
728.503	-312
728.535	-301
728.622	-280
728.657	-270
728.682	-257
728.714	-262
728.802	-259
728.843	-253
728.923	-205
728.952	-205
729.071	-192
729.160	-171
729.222	-147
729.289	-104
729.346	-50
729.435	-40
729.527	-1
729.612	-19
729.643	-124
729.732	-89
729.791	-129
729.853	150
729.886	152
729.954	68
730.003	-14
730.125	-247
730.219	-217
730.426	-263
730.454	-237
730.515	-198
730.630	-164
730.703	-162
730.756	-174
730.814	-83
730.962	-108
731.058	-133
731.151	-251
731.454	-343
731.502	-373
731.541	-387
731.595	-385
731.653	-348
731.714	-175
731.800	-368
731.908	-441
731.983	-345
732.111	-192
732.115	-289
732.118	-281
732.194	-529
732.394	-463
732.449	-458
732.452	-430
732.463	-366
732.588	-251
732.598	-223
732.645	-444
732.672	-437
732.732	-472
732.784	-437
732.853	-384
732.977	-286
733.256	-249
733.332	-289
733.338	-283
733.454	-312
733.487	-221
733.517	-271
733.616	-173
733.638	-223
733.674	-245
733.724	-159
733.756	-379
733.814	-271
733.873	-326
733.902	-329
733.965	-208
734.010	-272
734.080	-208
734.115	-213
734.260	-411
734.357	-381
734.388	-395
734.487	-555
734.532	-427
734.594	-457
734.653	-429
734.712	-548
734.802	-471
734.876	-376
734.985	-213
735.074	-214
735.196	-287
735.324	-322
735.375	-340
735.436	-316
735.506	-305
735.575	-252
735.643	-337
735.791	-365
735.852	-388
735.940	-305
735.976	-318
735.981	-319
736.041	-297
736.124	-304
736.152	-312
736.303	-304
736.380	-343
736.396	-253
736.452	-165
736.510	-40
736.564	55
736.602	2
736.667	32
736.751	-63
736.785	-18
736.853	117
736.913	278
736.994	307
737.055	292
737.114	337
737.203	245
737.232	81
737.285	-70
737.298	-350
737.355	-546
737.442	-606
737.502	-563
737.531	-547
737.623	-509
737.682	-242
737.775	-176
737.805	-180
737.836	-144
737.932	-157
737.984	-148
738.133	-245
738.250	-329
738.438	-169
738.492	-82
738.611	-121
738.673	-110
738.730	-198
738.850	-242
738.931	-247
738.933	-247
738.978	-299
739.097	-219
739.156	-249
739.213	-154
739.213	-145
739.271	-105
739.337	-27
739.396	-184
739.452	-233
739.484	-305
739.570	-329
739.603	-301
739.722	-259
739.782	-266
739.972	-312
739.995	-225
740.027	-207
740.302	-357
740.357	-317
740.366	-318
740.537	-336
740.565	-388
740.652	-382
740.666	-316
740.803	-352
740.821	-434
740.832	-428
740.884	-411
740.948	-350
740.960	-337
740.970	-316
741.027	-312
741.084	-393
741.403	-381
741.425	-359
741.479	-293
741.524	-289
741.536	-288
741.575	-344
741.613	-380
741.657	-420
741.666	-406
741.689	-432
741.710	-418
741.783	-430
741.795	-441
741.817	-420
741.854	-432
741.926	-342
741.975	-293
742.038	-234
742.072	-236
742.134	-226
742.244	-273
742.328	-370
742.361	-360
742.395	-342
742.572	-245
742.581	-202
742.589	-180
742.698	-165
742.706	-163
742.732	-134
742.819	-94
742.935	-133
742.988	-140
743.026	-102
743.111	-17
743.172	-88
743.235	-45
743.263	-31
743.355	-7
743.410	-73
743.505	-14
743.533	0
743.594	-67
743.623	-131
743.650	-143
743.682	-81
743.682	-81
743.804	-11
743.871	-19
743.991	73
744.033	43
744.153	48
744.250	258
744.283	202
744.373	185
744.408	185
744.462	181
744.523	126
744.585	76
744.674	46
744.747	96
744.801	129
744.863	166
745.145	160
745.177	142
745.227	107
745.264	16
745.280	-12
745.334	35
745.369	22
745.395	13
745.460	20
745.572	-24
745.586	-42
745.657	-19
745.827	-166
745.919	-175
745.992	-169
746.010	-206
746.032	-206
746.098	-247
746.124	-289
746.222	-390
746.419	-380
746.502	-410
746.542	-423
746.608	-394
746.830	-282
746.873	-287
746.924	-284
747.010	-403
747.042	-467
747.132	-460
747.196	-423
747.197	-431
747.221	-390
747.310	-418
747.407	-408
747.466	-414
747.561	-500
747.590	-536
747.645	-534
747.694	-518
747.780	-529
747.809	-544
747.949	-467
748.033	-425
748.117	-246
748.180	-171
748.214	-195
748.300	-82
748.392	-114
748.465	-35
748.467	-171
748.483	-286
748.578	-263
748.631	-246
748.693	-144
748.751	-205
748.784	-229
748.875	-286
748.902	-303
748.964	-320
749.082	-229
749.154	-259
749.155	-257
749.176	-244
749.234	-243
749.292	-207
749.324	-169
749.533	65
749.623	95
749.682	59
749.758	-5
749.803	-60
749.879	-47
749.959	-163
750.088	-368
750.090	-390
750.118	-551
750.161	-558
750.227	-442
750.347	-397
750.351	-389
750.391	-411
750.393	-417
750.404	-420
750.415	-420
750.436	-413
750.467	-440
750.555	-427
750.585	-429
750.673	-468
750.761	-545
750.828	-537
750.920	-455
751.033	-555
751.129	-539
751.154	-406
751.218	-374
751.225	-381
751.247	-379
751.304	-499
751.365	-487
751.452	-389
751.514	-356
751.577	-333
751.694	-186
751.814	-257
751.910	-286
751.968	-303
752.025	-284
752.086	-321
752.170	-405
752.201	-439
752.325	-449
752.355	-516
752.452	-380
752.532	-287
752.622	-210
752.625	-216
752.711	-303
752.772	-317
752.831	-286
752.929	-297
752.992	-332
752.994	-345
753.071	-306
753.137	-250
753.163	-261
753.223	-253
753.253	-246
753.311	-264
753.405	-225
753.449	-202
753.582	-45
753.672	-52
753.739	-61
753.795	-7
753.821	-8
753.901	-12
753.974	-216
753.974	-216
754.033	-224
754.154	-253
754.181	-315
754.212	-325
754.301	-284
754.369	-303
754.451	-303
754.542	-199
754.663	-234
754.845	-348
754.917	-391
754.992	-554
755.081	-349
755.158	-172
755.202	-322
755.292	-208
755.353	-484
755.412	-379
755.522	-482
755.577	-297
755.658	-477
755.684	-445
755.714	-421
755.833	-241
755.835	-243
755.926	-213
755.986	-220
756.104	-109
756.136	-106
756.197	-161
756.288	-193
756.290	-187
756.378	-137
756.461	-176
756.491	-226
756.551	-219
756.582	-174
756.615	-143
756.733	-76
756.763	-110
756.824	-132
756.863	-148
756.932	-183
756.971	-279
756.978	-282
757.095	-296
757.156	-251
757.246	-185
757.302	-153
757.367	-223
757.459	-265
757.516	-304
757.575	-265
757.623	-280
757.661	-362
757.783	-345
757.843	-345
757.917	-372
757.961	-342
758.010	-324
758.083	-272
758.172	-326
758.232	-281
758.265	-292
758.411	-255
758.475	-236
758.536	-283
758.607	-339
758.625	-342
758.748	-282
758.803	-252
758.864	-235
758.967	-277
758.994	-320
759.147	-350
759.167	-346
759.176	-341
759.229	-338
759.301	-375
759.327	-366
759.377	-325
760.012	-328
760.044	-494
760.073	-485
760.117	-363
760.141	-326
760.250	-328
760.279	-342
760.327	-354
760.356	-382
760.371	-439
760.380	-531
760.506	-503
760.525	-530
760.547	-563
760.624	-622
760.665	-663
760.759	-635
760.813	-588
760.877	-519
760.962	-453
761.028	-415
761.052	-394
761.155	-274
761.355	-166
761.563	-250
761.651	-315
761.787	-279
761.802	-250
761.837	-212
761.926	-187
762.009	-143
762.043	-95
762.115	-81
762.171	-71
762.228	-65
762.283	-115
762.370	-176
762.431	-153
762.558	-105
762.581	-57
762.680	-72
762.702	-113
762.761	-112
762.850	-109
762.900	-127
762.924	-133
762.943	-138
763.002	-206
763.066	-277
763.196	-285
763.207	-287
763.376	-258
763.384	-226
763.484	-241
763.530	-264
763.585	-302
763.605	-331
763.676	-348
763.734	-331
763.786	-342
763.814	-350
763.853	-347
763.907	-333
763.974	-316
764.020	-290
764.051	-311
764.114	-380
764.213	-417
764.219	-486
764.265	-491
764.334	-469
764.337	-455
764.413	-431
764.456	-363
764.474	-334
764.532	-248
764.590	-231
764.651	-266
764.753	-318
764.800	-333
764.872	-322
764.923	-302
765.041	-136
765.131	-72
765.184	-41
765.196	-3
765.219	15
765.318	24
765.370	-34
765.460	-104
765.489	-146
765.552	-177
765.669	-205
765.729	-190
765.794	-117
765.796	-113
765.849	-131
765.962	-257
766.004	-269
766.075	11
766.151	234
766.218	396
766.281	329
766.351	70
766.382	-117
766.454	-273
766.599	-212
766.669	-154
766.690	-129
766.784	13
766.874	79
766.902	94
766.933	76
766.990	33
767.025	26
767.080	1
767.083	-1
767.154	-17
767.292	439
767.352	586
767.410	806
767.499	438
767.533	263
767.562	234
767.564	103
767.593	64
767.679	-150
767.741	41
767.778	106
767.833	250
767.896	237
767.986	36
768.016	-39
768.074	-235
768.100	-216
768.136	-177
768.169	-161
768.250	8
768.401	-10
768.467	-97
768.524	-196
768.532	-243
768.568	-249
768.586	-273
768.671	-240
768.730	-214
768.888	-201
768.982	-187
769.004	-173
769.062	-180
769.211	-286
769.336	-277
769.396	-268
769.469	-205
769.488	-143
769.634	-145
769.693	-156
769.725	-150
769.783	-168
769.858	-211
769.941	-267
769.993	-285
770.160	-292
770.173	-334
770.232	-354
770.289	-362
770.322	-309
770.410	-268
770.499	-354
770.593	-351
770.619	-282
770.681	-239
770.743	-232
770.920	-289
771.111	-308
771.133	-315
771.178	-341
771.251	-332
771.309	-333
771.356	-362
771.399	-320
771.462	-333
771.521	-381
771.562	-369
771.645	-423
771.701	-427
771.792	-486
771.802	-498
771.854	-509
771.952	-431
772.001	-372
772.091	-383
772.152	-414
772.212	-451
772.271	-526
772.334	-491
772.419	-440
772.482	-442
772.548	-500
772.601	-525
772.663	-525
772.755	-529
772.934	-477
772.991	-534
773.109	-539
773.146	-532
773.234	-473
773.291	-477
773.323	-498
773.356	-519
773.451	-578
773.476	-577
773.591	-503
773.625	-448
773.750	-319
773.799	-364
773.834	-345
773.895	-394
774.013	-344
774.050	-372
774.108	-452
774.192	-431
774.254	-422
774.282	-445
774.404	-508
774.524	-507
774.609	-439
774.644	-432
774.703	-390
774.792	-306
774.849	-318
774.854	-339
774.919	-410
774.969	-454
774.979	-446
775.011	-411
775.031	-413
775.092	-427
775.151	-419
775.209	-426
775.270	-431
775.365	-381
775.425	-349
775.551	-277
775.640	-284
775.696	-348
775.760	-397
775.812	-423
775.872	-436
775.929	-445
775.989	-409
776.024	-380
776.110	-366
776.148	-367
776.202	-364
776.261	-409
776.351	-429
776.411	-425
776.474	-421
776.531	-422
776.589	-406
776.714	-381
776.746	-381
776.801	-359
776.924	-298
777.051	-254
777.072	-247
777.134	-242
777.193	-234
777.251	-216
777.311	-194
777.356	-172
777.433	-142
777.491	-134
777.552	-129
777.581	-127
777.583	-127
777.619	-123
777.793	-100
777.879	-91
777.971	-81
777.972	-81
778.125	-58
778.242	-50
778.302	-50
778.330	-48
778.506	-31
778.517	-24
778.548	-20
778.600	-13
778.931	-3
778.961	-3
778.968	-2
779.019	-1
779.202	-1
779.261	1
779.382	7
779.447	7
779.501	5
779.592	4
779.623	5
779.744	8
779.864	19
779.951	21
779.982	23
780.043	31
780.134	35
780.193	39
780.257	40
780.315	42
780.369	40
780.431	38
780.494	37
780.551	35
780.612	31
780.669	30
780.676	28
780.791	28
780.887	19
780.939	17
781.004	10
781.092	8
781.138	6
781.179	5
781.255	4
781.304	4
781.426	2
781.550	1
784.930	1
784.991	-1
786.022	-1
786.069	0
786.195	1
786.373	1
786.442	0
786.472	4
786.551	4
786.649	2
786.854	1
786.972	-1
787.485	-1
787.690	1
787.810	1
787.813	2
787.902	3
787.967	2
788.020	1
788.381	1
788.411	0
788.453	-1
788.713	-1
788.773	-3
788.903	-6
789.017	-6
